EEG 1,EEG 2,EEG 3,EEG 4,EEG 5,EEG 6,EEG 7,EEG 8,Accelerometer X,Accelerometer Y,Accelerometer Z,Gyroscope X,Gyroscope Y,Gyroscope Z,Battery Level,Counter,Validation Indicator
4816.425,4800.975,2997.077,4195.529,4836.711,4958.188,4876.855,4152.552,-0.115,0.742,-0.524,0.000,0.000,0.000,80.000,1.000,1.000
33953.857,33173.372,18941.820,27492.964,33878.490,34854.801,34234.425,27947.300,-0.112,0.743,-0.535,0.000,0.000,0.000,80.000,2.000,1.000
113412.603,107777.771,55277.241,83951.468,112755.504,116568.172,114482.074,88894.880,-0.112,0.744,-0.539,0.000,0.000,0.000,80.000,3.000,1.000
244127.969,222604.490,99697.946,161496.608,242269.427,251996.898,247485.373,181740.813,-0.112,0.743,-0.541,0.000,0.000,0.000,80.000,4.000,1.000
389736.099,336449.833,121527.063,226646.639,387197.619,405169.039,397916.383,275892.915,-0.110,0.746,-0.543,0.000,0.000,0.000,80.000,5.000,1.000
503049.860,409750.026,92543.672,260552.968,501842.454,527180.242,517745.448,341797.173,-0.110,0.743,-0.541,4.089,5.005,-2.228,80.000,6.000,1.000
557407.227,436524.363,19338.123,277936.708,559179.227,587429.531,576918.398,374242.089,-0.110,0.742,-0.543,1.251,2.075,-0.702,80.000,7.000,1.000
555324.174,437523.477,-38020.852,307460.276,559722.802,585317.738,574846.079,390503.632,-0.110,0.744,-0.544,0.397,1.495,-0.397,80.000,8.000,1.000
518246.233,434663.243,-6164.805,360984.322,523399.471,542652.232,532945.249,409104.401,-0.111,0.745,-0.543,0.000,1.251,-0.366,80.000,9.000,1.000
471359.960,436799.966,133091.315,425242.408,475352.044,487742.126,479018.417,433987.949,-0.112,0.743,-0.542,-0.122,1.221,-0.336,80.000,10.000,1.000
432536.820,441442.596,327740.693,476781.633,434413.884,441919.073,434015.713,456938.248,-0.112,0.743,-0.544,-0.183,1.251,-0.214,80.000,11.000,1.000
408391.365,442305.668,500232.235,499472.414,408319.817,413589.991,406405.377,468115.552,-0.112,0.744,-0.544,-0.183,1.312,-0.183,80.000,12.000,1.000
395461.459,434391.331,596238.489,491103.049,394281.467,398421.339,392768.149,462227.025,-0.111,0.743,-0.542,-0.153,1.190,-0.244,80.000,13.000,1.000
382388.480,413433.184,602363.085,458187.341,380993.607,382293.813,380257.383,436667.315,-0.111,0.744,-0.543,-0.031,1.038,-0.275,80.000,14.000,1.000
353675.424,373723.417,535947.634,406728.264,352586.772,347756.121,351471.303,388040.417,-0.113,0.743,-0.543,-0.153,1.160,-0.183,80.000,15.000,1.000
297736.813,310670.959,426926.828,338844.145,297028.788,284170.335,293967.299,314775.393,-0.112,0.743,-0.544,-0.122,1.190,-0.122,80.000,16.000,1.000
214755.655,226419.231,304957.757,256771.571,214239.458,194745.035,208583.686,222420.023,-0.111,0.742,-0.541,-0.122,1.129,-0.122,80.000,17.000,1.000
117412.383,131783.900,192989.749,167430.354,116883.153,94767.855,109315.019,124096.200,-0.113,0.744,-0.542,0.000,1.038,-0.153,80.000,18.000,1.000
24544.997,42500.049,104958.482,82383.194,23941.896,3615.603,15902.085,35703.720,-0.112,0.743,-0.542,0.092,1.129,-0.061,80.000,19.000,1.000
-47507.402,-27394.795,45816.162,13488.325,-48094.056,-63828.708,-55272.128,-30369.985,-0.111,0.743,-0.543,0.092,1.068,-0.122,80.000,20.000,1.000
-91298.984,-71183.867,12843.123,-32410.549,-91728.057,-102385.816,-97373.112,-69685.549,-0.110,0.745,-0.543,0.092,1.068,-0.092,80.000,21.000,1.000
-109594.845,-91084.330,-1764.551,-56038.866,-109776.971,-116636.534,-113939.631,-86205.950,-0.110,0.745,-0.542,0.031,1.068,-0.153,80.000,22.000,1.000
-111840.904,-95476.879,-7298.033,-64124.583,-111779.169,-116755.507,-114951.455,-88984.160,-0.110,0.743,-0.542,0.214,1.099,-0.183,80.000,23.000,1.000
-108684.765,-94107.430,-11250.916,-65395.592,-108454.603,-113112.556,-111206.925,-87487.249,-0.112,0.741,-0.541,0.275,1.068,-0.183,80.000,24.000,1.000
-107686.294,-94129.724,-17616.138,-66817.172,-107387.379,-112473.650,-110113.235,-88121.969,-0.110,0.742,-0.542,0.244,1.221,-0.214,80.000,25.000,1.000
-111737.191,-98506.229,-27016.337,-71745.546,-111450.383,-116946.611,-114285.713,-93129.011,-0.110,0.743,-0.542,0.275,1.190,-0.153,80.000,26.000,1.000
-119920.142,-106648.376,-38019.039,-80168.405,-119686.735,-125158.454,-122569.129,-101511.512,-0.111,0.744,-0.542,0.397,1.251,-0.214,80.000,27.000,1.000
-129550.547,-116214.937,-48692.884,-90185.714,-129374.107,-134350.041,-132160.647,-110874.486,-0.111,0.744,-0.542,0.366,1.221,-0.183,80.000,28.000,1.000
-138100.219,-124883.836,-57696.351,-99647.937,-137961.987,-142170.598,-140531.787,-119071.135,-0.112,0.743,-0.542,0.458,1.282,-0.153,80.000,29.000,1.000
-144252.068,-131375.414,-64649.723,-107214.084,-144128.997,-147550.506,-146433.031,-125054.625,-0.112,0.745,-0.539,0.488,1.312,-0.122,80.000,30.000,1.000
-147998.637,-135604.299,-69934.299,-112625.690,-147875.522,-150663.345,-149934.161,-128904.348,-0.113,0.745,-0.542,0.610,1.221,-0.305,80.000,31.000,1.000
-150135.955,-138253.697,-74242.627,-116402.131,-150008.410,-152367.239,-151879.180,-131355.211,-0.111,0.746,-0.541,0.610,1.190,-0.336,80.000,32.000,1.000
-151616.303,-140190.726,-78175.391,-119323.405,-151487.269,-153577.695,-153228.929,-133235.147,-0.111,0.744,-0.542,0.580,1.160,-0.183,80.000,33.000,1.000
-153094.172,-142038.054,-82039.243,-122008.665,-152969.023,-154868.781,-154619.208,-135089.936,-0.111,0.744,-0.542,0.549,1.251,-0.214,80.000,34.000,1.000
-154782.053,-144022.234,-85851.070,-124732.859,-154665.433,-156380.823,-156236.240,-137080.184,-0.112,0.745,-0.543,0.671,1.373,-0.153,80.000,35.000,1.000
-156553.348,-146052.211,-89463.870,-127464.192,-156447.923,-157950.041,-157933.995,-139083.926,-0.111,0.744,-0.542,0.671,1.312,-0.183,80.000,36.000,1.000
-158148.409,-147901.483,-92711.173,-130017.059,-158054.670,-159314.912,-159445.012,-140877.227,-0.111,0.745,-0.540,0.671,1.343,-0.183,80.000,37.000,1.000
-159352.854,-149373.360,-95499.921,-132207.563,-159269.562,-160279.745,-160556.519,-142283.657,-0.111,0.747,-0.542,0.732,1.404,-0.122,80.000,38.000,1.000
-160082.436,-150384.788,-97832.449,-133943.700,-160007.678,-160782.574,-161190.628,-143241.425,-0.111,0.747,-0.539,0.732,1.373,-0.122,80.000,39.000,1.000
-160376.345,-150966.081,-99777.326,-135238.467,-160308.790,-160877.247,-161393.269,-143793.199,-0.109,0.746,-0.540,0.641,1.343,-0.244,80.000,40.000,1.000
-160339.333,-151211.196,-101422.631,-136171.477,-160278.964,-160672.230,-161273.531,-144034.462,-0.110,0.747,-0.540,0.641,1.404,-0.275,80.000,41.000,1.000
-160077.994,-151219.798,-102838.499,-136835.957,-160026.072,-160269.701,-160939.389,-144059.160,-0.111,0.747,-0.542,0.732,1.404,-0.244,80.000,42.000,1.000
-159661.165,-151059.470,-104061.518,-137300.355,-159619.690,-159731.160,-160459.157,-143927.230,-0.111,0.748,-0.538,0.671,1.434,-0.122,80.000,43.000,1.000
-159112.837,-150756.889,-105099.937,-137596.756,-159083.638,-159074.110,-159855.332,-143659.707,-0.111,0.747,-0.541,0.641,1.434,-0.092,80.000,44.000,1.000
-158427.467,-150309.913,-105949.089,-137730.047,-158411.046,-158288.577,-159120.123,-143252.171,-0.111,0.746,-0.540,0.610,1.434,-0.183,80.000,45.000,1.000
-157590.754,-149706.169,-106605.244,-137693.512,-157585.555,-157357.860,-158236.670,-142692.562,-0.110,0.745,-0.539,0.458,1.343,-0.244,80.000,46.000,1.000
-156594.472,-148937.747,-107072.480,-137481.783,-156597.334,-156273.205,-157194.904,-141974.344,-0.110,0.745,-0.538,0.641,1.465,-0.275,80.000,47.000,1.000
-155442.345,-148007.956,-107363.108,-137098.301,-155449.889,-155039.116,-155998.090,-141102.103,-0.109,0.746,-0.539,0.610,1.251,-0.244,80.000,48.000,1.000
-154148.463,-146930.464,-107494.128,-136555.634,-154158.265,-153670.730,-154660.998,-140090.044,-0.110,0.745,-0.539,0.519,1.343,-0.183,80.000,49.000,1.000
-152731.532,-145723.956,-107482.612,-135870.309,-152742.503,-152187.289,-153203.514,-138956.446,-0.110,0.744,-0.539,0.610,1.373,-0.153,80.000,50.000,1.000
-151208.906,-144406.394,-107342.660,-135057.734,-151221.241,-150606.163,-151644.162,-137718.215,-0.113,0.744,-0.542,0.671,1.312,-0.031,80.000,51.000,1.000
-149593.452,-142991.626,-107084.809,-134130.403,-149608.374,-148939.918,-149996.418,-136387.980,-0.112,0.744,-0.542,0.702,1.373,-0.061,80.000,52.000,1.000
-147893.706,-141488.833,-106716.929,-133098.278,-147912.756,-147196.297,-148268.296,-134973.751,-0.112,0.744,-0.538,0.732,1.434,-0.061,80.000,53.000,1.000
-146115.566,-139903.835,-106245.390,-131969.530,-146139.628,-145379.873,-146464.053,-133480.119,-0.112,0.743,-0.540,0.793,1.343,-0.122,80.000,54.000,1.000
-144263.627,-138240.896,-105675.913,-130750.942,-144292.604,-143494.160,-144586.499,-131909.982,-0.113,0.744,-0.539,0.763,1.404,-0.122,80.000,55.000,1.000
-142341.975,-136504.130,-105014.057,-129448.312,-142375.383,-141543.222,-142638.824,-130266.203,-0.113,0.744,-0.539,0.732,1.373,-0.153,80.000,56.000,1.000
-140355.146,-134698.411,-104265.689,-128067.075,-140392.730,-139532.336,-140625.507,-128552.837,-0.113,0.744,-0.543,0.854,1.343,-0.244,80.000,57.000,1.000
-138308.796,-132829.739,-103437.332,-126612.793,-138350.571,-137467.801,-138552.392,-126775.608,-0.112,0.746,-0.541,0.854,1.373,-0.214,80.000,58.000,1.000
-136209.365,-130904.840,-102536.001,-125091.506,-136255.514,-135356.253,-136426.283,-124941.704,-0.114,0.745,-0.540,0.916,1.343,-0.061,80.000,59.000,1.000
-134063.211,-128930.254,-101568.415,-123509.609,-134114.057,-133203.848,-134254.162,-123058.862,-0.113,0.745,-0.539,0.946,1.312,-0.031,80.000,60.000,1.000
-131875.955,-126911.460,-100540.035,-121872.808,-131931.647,-131015.499,-132042.178,-121133.894,-0.111,0.747,-0.542,0.977,1.282,0.061,80.000,61.000,1.000
-129652.330,-124852.648,-99454.929,-120185.671,-129712.322,-128794.635,-129795.119,-119171.794,-0.111,0.746,-0.542,1.038,1.282,-0.061,80.000,62.000,1.000
-127396.341,-122757.106,-98316.523,-118452.400,-127459.230,-126543.695,-127516.712,-117176.097,-0.111,0.746,-0.541,1.038,1.251,0.092,80.000,63.000,1.000
-125111.170,-120627.537,-97128.000,-116676.733,-125175.186,-124264.746,-125210.099,-115149.540,-0.111,0.748,-0.540,1.007,1.343,0.122,80.000,64.000,1.000
-122799.411,-118466.467,-95892.412,-114861.592,-122862.986,-121959.930,-122878.185,-113094.577,-0.111,0.748,-0.543,1.068,1.282,0.153,80.000,65.000,1.000
-120464.045,-116277.053,-94613.369,-113010.504,-120525.908,-119631.921,-120524.049,-111014.108,-0.111,0.747,-0.543,1.068,1.251,0.122,80.000,66.000,1.000
-118108.690,-114063.394,-93295.307,-111128.294,-118167.866,-117284.081,-118151.105,-108911.759,-0.113,0.748,-0.542,1.129,1.251,0.122,80.000,67.000,1.000
-115736.760,-111829.945,-91942.729,-109219.304,-115792.950,-114920.225,-115762.949,-106791.308,-0.110,0.745,-0.538,1.007,1.129,0.153,80.000,68.000,1.000
-113351.196,-109580.968,-90559.626,-107286.467,-113405.103,-112544.400,-113363.256,-104656.250,-0.112,0.744,-0.538,1.068,1.160,0.122,80.000,69.000,1.000
-110954.878,-107320.208,-89149.370,-105332.274,-111007.976,-110160.504,-110955.566,-102509.770,-0.111,0.746,-0.540,1.068,1.251,0.153,80.000,70.000,1.000
-108550.399,-105050.355,-87714.366,-103359.145,-108604.415,-107771.581,-108542.737,-100354.529,-0.111,0.746,-0.543,1.068,1.190,0.153,80.000,71.000,1.000
-106139.494,-102772.809,-86255.888,-101368.801,-106196.023,-105379.422,-106126.502,-98192.286,-0.110,0.748,-0.540,1.068,1.129,0.183,80.000,72.000,1.000
-103723.245,-100488.352,-84774.760,-99362.250,-103783.604,-102985.045,-103707.676,-96023.996,-0.109,0.746,-0.541,1.129,1.129,0.183,80.000,73.000,1.000
-101303.203,-98198.276,-83272.555,-97341.152,-101368.304,-100589.760,-101287.090,-93850.666,-0.109,0.745,-0.539,1.160,1.251,0.244,80.000,74.000,1.000
-98882.100,-95904.844,-81752.214,-95309.166,-98952.294,-98195.736,-98866.358,-91674.161,-0.108,0.746,-0.541,1.160,1.221,0.183,80.000,75.000,1.000
-96463.101,-93610.644,-80217.245,-93270.930,-96538.198,-95805.430,-96447.689,-89496.931,-0.111,0.745,-0.541,1.160,1.221,0.092,80.000,76.000,1.000
-94048.694,-91317.831,-78670.545,-91229.623,-94128.225,-93420.754,-94033.233,-87321.045,-0.110,0.747,-0.542,1.221,1.251,0.092,80.000,77.000,1.000
-91640.731,-89028.229,-77114.222,-89186.406,-91724.110,-91043.053,-91624.797,-85147.700,-0.111,0.745,-0.543,1.251,1.282,0.153,80.000,78.000,1.000
-89240.821,-86743.677,-75550.039,-87141.953,-89327.435,-88673.517,-89223.745,-82977.489,-0.111,0.746,-0.541,1.343,1.251,0.122,80.000,79.000,1.000
-86850.236,-84465.879,-73979.590,-85097.710,-86939.614,-86313.311,-86830.861,-80810.921,-0.111,0.746,-0.541,1.312,1.251,0.183,80.000,80.000,1.000
-84469.951,-82196.196,-72404.252,-83055.519,-84561.708,-83963.423,-84446.403,-78648.722,-0.110,0.747,-0.542,1.343,1.251,0.122,80.000,81.000,1.000
-82100.895,-79935.741,-70825.114,-81016.342,-82194.398,-81624.549,-82070.512,-76491.855,-0.110,0.744,-0.537,1.404,1.221,0.122,80.000,82.000,1.000
-79743.975,-77685.543,-69243.062,-78980.309,-79838.221,-79297.191,-79703.811,-74341.732,-0.111,0.744,-0.541,1.282,1.221,0.092,80.000,83.000,1.000
-77399.926,-75446.479,-67658.920,-76947.874,-77493.825,-76981.937,-77347.818,-72200.473,-0.113,0.745,-0.540,1.373,1.160,0.092,80.000,84.000,1.000
-75069.252,-73219.211,-66073.457,-74919.879,-75161.960,-74679.596,-75004.783,-70070.554,-0.111,0.745,-0.539,1.373,1.129,0.061,80.000,85.000,1.000
-72752.538,-71004.401,-64487.524,-72896.992,-72843.496,-72391.131,-72677.171,-67954.092,-0.107,0.746,-0.538,1.404,1.190,0.061,80.000,86.000,1.000
-70450.746,-68802.904,-62902.197,-70880.021,-70539.519,-70117.507,-70367.142,-65852.490,-0.110,0.747,-0.542,1.404,1.251,0.031,80.000,87.000,1.000
-68165.007,-66615.576,-61318.579,-68870.731,-68251.242,-67859.588,-68076.211,-63766.603,-0.109,0.746,-0.541,1.495,1.160,0.092,80.000,88.000,1.000
-65896.382,-64443.123,-59737.663,-66871.857,-65979.876,-65618.279,-65805.227,-61697.123,-0.110,0.747,-0.542,1.434,1.160,0.000,80.000,89.000,1.000
-63645.893,-62286.251,-58160.450,-64885.790,-63726.636,-63394.793,-63554.601,-59644.763,-0.111,0.748,-0.544,1.434,1.160,0.031,80.000,90.000,1.000
-61414.404,-60145.755,-56587.858,-62913.293,-61492.661,-61190.584,-61324.500,-57610.032,-0.111,0.747,-0.544,1.404,1.099,-0.031,80.000,91.000,1.000
-59202.383,-58022.395,-55020.527,-60953.729,-59278.811,-59006.896,-59114.969,-55592.969,-0.111,0.748,-0.542,1.373,1.221,-0.153,80.000,92.000,1.000
-57010.010,-55916.812,-53459.061,-59006.501,-57085.669,-56844.440,-56926.131,-53593.362,-0.111,0.747,-0.541,1.373,1.221,0.000,80.000,93.000,1.000
-54837.604,-53829.612,-51904.448,-57072.235,-54913.776,-54703.418,-54758.290,-51611.205,-0.111,0.748,-0.540,1.343,1.099,-0.092,80.000,94.000,1.000
-52685.765,-51761.457,-50358.004,-55152.471,-52763.778,-52583.704,-52611.801,-49646.911,-0.112,0.748,-0.537,1.282,1.160,-0.031,80.000,95.000,1.000
-50555.245,-49713.192,-48821.086,-53248.797,-50636.420,-50485.194,-50487.028,-47701.396,-0.113,0.747,-0.540,1.343,1.160,-0.031,80.000,96.000,1.000
-48446.990,-47686.079,-47295.036,-51362.626,-48532.516,-48408.262,-48384.486,-45776.015,-0.110,0.746,-0.540,1.160,1.160,-0.061,80.000,97.000,1.000
-46362.154,-45681.694,-45781.027,-49494.853,-46452.706,-46353.827,-46304.779,-43871.934,-0.111,0.747,-0.542,1.099,1.038,-0.122,80.000,98.000,1.000
-44301.848,-43701.376,-44279.799,-47645.482,-44397.196,-44322.994,-44248.415,-41989.459,-0.109,0.749,-0.545,1.160,1.038,-0.092,80.000,99.000,1.000
-42266.944,-41745.787,-42791.698,-45814.189,-42365.903,-42316.802,-42215.829,-40128.121,-0.109,0.749,-0.544,1.221,1.068,-0.122,80.000,100.000,1.000
-40257.863,-39814.832,-41316.748,-44000.884,-40358.683,-40336.053,-40207.380,-38287.194,-0.108,0.749,-0.544,1.129,1.190,-0.061,80.000,101.000,1.000
-38274.456,-37907.863,-39854.689,-42205.781,-38375.367,-38380.995,-38223.126,-36466.151,-0.108,0.751,-0.542,1.068,1.160,-0.092,80.000,102.000,1.000
-36316.376,-36024.171,-38405.345,-40429.540,-36415.881,-36451.154,-36262.771,-34664.957,-0.109,0.748,-0.539,1.007,1.129,0.000,80.000,103.000,1.000
-34383.270,-34163.245,-36968.760,-38672.882,-34480.242,-34545.441,-34325.819,-32884.013,-0.109,0.746,-0.542,1.068,1.282,0.092,80.000,104.000,1.000
-32474.367,-32324.630,-35544.765,-36935.716,-32568.308,-32662.509,-32411.859,-31123.890,-0.109,0.745,-0.541,1.007,1.282,0.244,80.000,105.000,1.000
-30588.573,-30507.892,-34132.853,-35217.183,-30679.847,-30801.442,-30521.026,-29385.339,-0.107,0.745,-0.541,0.977,1.282,0.122,80.000,106.000,1.000
-28725.307,-28712.826,-32732.654,-33516.641,-28814.962,-28962.344,-28654.290,-27669.419,-0.107,0.745,-0.539,0.946,1.282,0.092,80.000,107.000,1.000
-26885.054,-26939.664,-31344.433,-31834.310,-26974.295,-27146.330,-26813.184,-25977.286,-0.107,0.746,-0.538,0.946,1.282,0.092,80.000,108.000,1.000
-25069.067,-25189.171,-29969.171,-30170.990,-25158.787,-25354.984,-24999.116,-24309.707,-0.107,0.746,-0.540,0.885,1.282,0.183,80.000,109.000,1.000
-23278.476,-23462.316,-28608.018,-28527.104,-23369.153,-23589.607,-23212.709,-22666.628,-0.107,0.746,-0.542,0.854,1.343,0.153,80.000,110.000,1.000
-21513.830,-21759.720,-27261.696,-26902.417,-21605.513,-21850.609,-21453.536,-21047.245,-0.106,0.744,-0.540,0.854,1.373,0.183,80.000,111.000,1.000
-19775.507,-20081.529,-25930.652,-25297.561,-19867.697,-20137.519,-19720.632,-19450.941,-0.107,0.744,-0.541,0.946,1.465,0.122,80.000,112.000,1.000
-18064.017,-18427.697,-24615.538,-23715.124,-18155.807,-18449.567,-18013.347,-17878.048,-0.105,0.745,-0.542,0.885,1.312,0.000,80.000,113.000,1.000
-16379.561,-16798.242,-23317.050,-22157.666,-16470.177,-16786.249,-16331.609,-16329.317,-0.105,0.745,-0.543,0.916,1.373,-0.031,80.000,114.000,1.000
-14721.668,-15193.330,-22035.371,-20624.867,-14810.961,-15147.579,-14675.594,-14804.846,-0.105,0.742,-0.541,0.854,1.373,-0.153,80.000,115.000,1.000
-13089.521,-13613.161,-20770.079,-19113.699,-13178.069,-13534.134,-13045.558,-13303.943,-0.104,0.742,-0.541,0.977,1.434,-0.305,80.000,116.000,1.000
-11482.648,-12057.899,-19520.761,-17621.529,-11571.605,-11946.923,-11441.992,-11826.039,-0.104,0.741,-0.540,0.977,1.495,-0.305,80.000,117.000,1.000
-9901.351,-10527.910,-18287.705,-16148.447,-9992.247,-10387.077,-9865.684,-10371.478,-0.105,0.742,-0.542,1.068,1.556,-0.366,80.000,118.000,1.000
-8346.498,-9023.909,-17071.797,-14696.398,-8440.895,-8855.313,-8317.323,-8941.178,-0.104,0.743,-0.541,1.129,1.587,-0.366,80.000,119.000,1.000
-6818.880,-7546.507,-15873.696,-13267.016,-6917.778,-7351.401,-6796.890,-7535.622,-0.105,0.741,-0.541,1.251,1.617,-0.397,80.000,120.000,1.000
-5318.717,-6095.640,-14693.316,-11860.910,-5422.041,-5874.213,-5303.479,-6154.417,-0.105,0.744,-0.543,1.160,1.587,-0.580,80.000,121.000,1.000
-3845.643,-4670.609,-13530.152,-10478.270,-3952.243,-4422.437,-3835.700,-4796.683,-0.104,0.742,-0.544,1.251,1.617,-0.580,80.000,122.000,1.000
-2399.008,-3270.565,-12383.803,-9118.989,-2507.023,-2995.143,-2392.124,-3461.332,-0.104,0.743,-0.544,1.312,1.648,-0.641,80.000,123.000,1.000
-978.158,-1894.834,-11254.022,-7782.105,-1085.381,-1591.772,-971.563,-2147.067,-0.105,0.745,-0.544,1.343,1.587,-0.732,80.000,124.000,1.000
417.448,-542.966,-10140.525,-6465.947,313.193,-212.003,426.578,-852.878,-0.104,0.745,-0.544,1.312,1.648,-0.824,80.000,125.000,1.000
1788.188,785.305,-9043.014,-5169.349,1688.596,1144.291,1802.106,421.172,-0.105,0.747,-0.545,1.404,1.678,-0.916,80.000,126.000,1.000
3134.229,2090.157,-7961.318,-3892.468,3040.248,2477.180,3154.285,1673.952,-0.106,0.748,-0.547,1.404,1.770,-0.946,80.000,127.000,1.000
4455.568,3371.718,-6895.406,-2636.177,4367.472,3786.784,4482.257,2904.117,-0.107,0.748,-0.547,1.404,1.770,-0.977,80.000,128.000,1.000
5752.175,4630.020,-5845.352,-1401.004,5669.745,5073.129,5785.265,4110.758,-0.109,0.748,-0.542,1.282,1.770,-0.977,80.000,129.000,1.000
7024.058,5864.907,-4811.379,-187.083,6946.628,6335.915,7062.635,5293.265,-0.111,0.747,-0.542,1.251,1.740,-1.068,80.000,130.000,1.000
8271.155,7075.944,-3793.918,1005.244,8197.576,7574.436,8313.669,6451.042,-0.112,0.748,-0.543,1.282,1.587,-1.038,80.000,131.000,1.000
9493.292,8262.548,-2793.420,2175.535,9422.066,8787.822,9537.769,7583.712,-0.112,0.750,-0.546,1.068,1.465,-1.007,80.000,132.000,1.000
10690.366,9424.412,-1810.097,3323.915,10620.016,9975.561,10734.769,8691.505,-0.110,0.746,-0.545,1.099,1.465,-1.099,80.000,133.000,1.000
11862.552,10561.856,-843.832,4451.071,11791.978,11137.828,11905.096,9775.246,-0.110,0.747,-0.544,1.038,1.465,-1.038,80.000,134.000,1.000
13010.314,11675.729,105.719,5557.357,12938.923,12275.262,13049.583,10835.932,-0.111,0.747,-0.545,1.038,1.404,-1.068,80.000,135.000,1.000
14134.188,12766.941,1038.923,6642.331,14061.786,13388.494,14169.196,11874.377,-0.114,0.746,-0.544,0.977,1.312,-1.038,80.000,136.000,1.000
15234.576,13836.029,1956.047,7705.604,15161.143,14477.921,15264.822,12891.169,-0.113,0.746,-0.544,1.068,1.190,-0.916,80.000,137.000,1.000
16311.706,14882.998,2857.181,8747.478,16237.112,15543.747,16337.047,13886.560,-0.113,0.746,-0.543,1.038,1.129,-0.854,80.000,138.000,1.000
17365.611,15907.462,3742.176,9768.426,17289.436,16586.058,17385.959,14860.292,-0.110,0.743,-0.541,1.068,1.068,-0.854,80.000,139.000,1.000
18396.188,16908.973,4610.816,10768.933,18317.814,17604.956,18411.277,15811.969,-0.113,0.744,-0.540,0.977,1.038,-0.732,80.000,140.000,1.000
19403.231,17887.236,5462.970,11749.726,19322.238,18600.611,19412.712,16741.630,-0.112,0.744,-0.539,0.946,1.038,-0.671,80.000,141.000,1.000
20386.466,18842.116,6298.501,12711.231,20303.003,19573.097,20390.172,17649.749,-0.113,0.743,-0.537,0.977,0.854,-0.519,80.000,142.000,1.000
21345.859,19773.784,7117.359,13653.198,21260.545,20522.324,21343.789,18536.847,-0.112,0.743,-0.541,1.099,0.763,-0.397,80.000,143.000,1.000
22281.944,20682.914,7919.941,14575.286,22195.384,21448.308,22274.011,19403.372,-0.113,0.743,-0.539,1.038,0.702,-0.336,80.000,144.000,1.000
23195.577,21570.502,8707.069,15477.522,23108.117,22351.509,23181.732,20249.899,-0.115,0.739,-0.537,1.038,0.549,-0.336,80.000,145.000,1.000
24087.416,22437.342,9479.488,16360.165,23999.310,23232.789,24068.126,21077.232,-0.116,0.740,-0.536,1.190,0.549,-0.244,80.000,146.000,1.000
24957.720,23283.709,10237.408,17223.556,24869.366,24093.052,24934.226,21886.190,-0.116,0.741,-0.539,1.221,0.488,-0.214,80.000,147.000,1.000
25806.355,24109.449,10980.445,18068.127,25718.475,24932.997,25780.673,22677.275,-0.115,0.741,-0.542,1.373,0.366,-0.153,80.000,148.000,1.000
26632.775,24914.154,11707.800,18894.091,26546.581,25753.070,26607.676,23450.484,-0.115,0.743,-0.542,1.312,0.244,-0.244,80.000,149.000,1.000
27436.248,25697.362,12418.591,19701.056,27353.421,26553.526,27415.071,24205.275,-0.114,0.744,-0.543,1.282,0.122,-0.214,80.000,150.000,1.000
28216.297,26458.874,13112.307,20488.101,28138.706,27334.533,28202.405,24940.666,-0.115,0.745,-0.542,1.221,0.183,-0.183,80.000,151.000,1.000
28972.855,27198.869,13788.983,21254.102,28902.214,28096.131,28968.981,25655.446,-0.113,0.745,-0.539,1.282,0.092,-0.244,80.000,152.000,1.000
29706.264,27917.690,14449.082,21998.395,29643.791,28838.139,29714.027,26348.707,-0.112,0.747,-0.544,1.190,0.031,-0.244,80.000,153.000,1.000
30417.430,28615.732,15093.390,22721.642,30363.393,29560.072,30436.975,27020.370,-0.112,0.746,-0.546,1.129,0.031,-0.183,80.000,154.000,1.000
31107.896,29293.588,15722.972,23425.837,31061.113,30261.144,31137.550,27671.099,-0.111,0.747,-0.544,1.160,0.061,-0.275,80.000,155.000,1.000
31779.563,29952.191,16339.035,24113.332,31737.220,30940.549,31815.698,28301.806,-0.112,0.747,-0.543,1.160,0.031,-0.214,80.000,156.000,1.000
32433.867,30592.469,16942.397,24785.493,32392.069,31597.771,32471.439,28913.196,-0.110,0.746,-0.543,1.068,0.000,-0.153,80.000,157.000,1.000
33070.918,31214.649,17532.870,25442.013,33025.917,32232.635,33104.734,29505.523,-0.108,0.746,-0.544,1.038,0.031,-0.244,80.000,158.000,1.000
33689.670,31818.142,18109.491,26081.823,33639.059,32845.424,33715.676,30078.773,-0.107,0.746,-0.544,0.977,0.061,-0.183,80.000,159.000,1.000
34288.937,32402.227,18671.453,26704.290,34232.138,33437.086,34304.836,30633.011,-0.108,0.746,-0.543,0.977,0.092,-0.275,80.000,160.000,1.000
34868.090,32966.822,19218.680,27309.208,34806.068,34009.022,34873.285,31168.520,-0.106,0.746,-0.547,0.885,0.244,-0.214,80.000,161.000,1.000
35426.906,33512.513,19751.587,27896.202,35361.560,34562.430,35422.210,31685.728,-0.107,0.746,-0.544,0.793,0.244,-0.122,80.000,162.000,1.000
35965.291,34039.936,20270.509,28464.738,35898.815,35097.819,35952.558,32185.129,-0.108,0.746,-0.540,0.824,0.336,-0.183,80.000,163.000,1.000
36483.628,34549.443,20775.662,29015.012,36417.812,35615.156,36465.006,32667.360,-0.108,0.746,-0.539,0.763,0.549,-0.092,80.000,164.000,1.000
36982.989,35041.266,21267.361,29548.407,36918.698,36114.252,36960.082,33133.339,-0.108,0.744,-0.539,0.763,0.580,-0.122,80.000,165.000,1.000
37464.339,35515.476,21745.780,30066.396,37401.607,36594.887,37438.138,33584.158,-0.108,0.746,-0.541,0.702,0.702,-0.183,80.000,166.000,1.000
37927.773,35971.817,22210.600,30569.135,37866.294,37056.847,37899.196,34020.613,-0.109,0.748,-0.540,0.671,0.671,-0.153,80.000,167.000,1.000
38372.772,36409.881,22661.221,31055.356,38312.283,37500.155,38343.000,34442.774,-0.109,0.745,-0.541,0.580,0.763,-0.153,80.000,168.000,1.000
38798.826,36829.494,23097.308,31523.563,38739.450,37925.331,38769.407,34850.083,-0.109,0.746,-0.539,0.580,0.824,-0.153,80.000,169.000,1.000
39205.807,37230.967,23519.078,31973.269,39148.351,38333.426,39178.696,35241.829,-0.110,0.745,-0.542,0.488,0.824,-0.122,80.000,170.000,1.000
39594.174,37615.035,23927.114,32405.184,39539.934,38725.784,39571.450,35617.558,-0.111,0.747,-0.540,0.427,0.793,-0.183,80.000,171.000,1.000
39965.000,37982.608,24322.078,32820.762,39915.089,39103.663,39948.253,35977.219,-0.112,0.748,-0.539,0.519,0.824,-0.244,80.000,172.000,1.000
40319.509,38334.464,24704.492,33221.666,40274.351,39467.892,40309.455,36321.002,-0.111,0.748,-0.542,0.397,0.854,-0.153,80.000,173.000,1.000
40658.234,38670.911,25074.415,33608.725,40617.634,39818.598,40654.973,36648.858,-0.111,0.748,-0.544,0.427,1.068,-0.244,80.000,174.000,1.000
40980.637,38991.609,25431.267,33980.994,40944.149,40155.081,40984.171,36960.142,-0.111,0.747,-0.544,0.519,1.129,-0.244,80.000,175.000,1.000
41285.824,39295.875,25774.414,34336.661,41252.916,40475.981,41296.094,37253.964,-0.109,0.746,-0.542,0.458,1.129,-0.305,80.000,176.000,1.000
41573.678,39583.359,26104.102,34675.118,41543.594,40779.748,41590.013,37530.067,-0.111,0.746,-0.543,0.458,1.190,-0.275,80.000,177.000,1.000
41845.087,39854.429,26421.530,34997.706,41816.767,41065.181,41865.845,37789.339,-0.111,0.746,-0.543,0.488,1.251,-0.336,80.000,178.000,1.000
42101.243,40109.918,26727.993,35306.664,42073.451,41331.737,42124.115,38033.418,-0.112,0.746,-0.542,0.519,1.129,-0.305,80.000,179.000,1.000
42343.033,40350.580,27024.141,35603.735,42314.430,41579.541,42365.519,38263.767,-0.111,0.743,-0.543,0.519,1.038,-0.305,80.000,180.000,1.000
42570.864,40576.800,27309.931,35889.455,42539.975,41809.189,42590.439,38480.955,-0.109,0.742,-0.545,0.549,1.221,-0.244,80.000,181.000,1.000
42784.596,40788.736,27584.958,36163.301,42750.095,42021.649,42798.920,38684.655,-0.112,0.743,-0.544,0.580,1.221,-0.275,80.000,182.000,1.000
42983.670,40986.578,27848.801,36424.345,42944.988,42218.236,42991.114,38874.288,-0.113,0.744,-0.541,0.580,1.251,-0.275,80.000,183.000,1.000
43167.627,41170.529,28101.229,36671.661,43125.138,42400.362,43167.574,39049.585,-0.112,0.746,-0.541,0.671,1.251,-0.183,80.000,184.000,1.000
43336.487,41340.577,28342.110,36904.310,43291.008,42569.112,43329.068,39210.575,-0.114,0.748,-0.541,0.580,1.190,-0.244,80.000,185.000,1.000
43490.643,41496.546,28571.334,37121.644,43442.890,42725.099,43476.334,39357.519,-0.112,0.744,-0.540,0.519,1.221,-0.122,80.000,186.000,1.000
43630.681,41638.547,28789.099,37324.041,43581.126,42868.702,43610.108,39491.187,-0.112,0.744,-0.539,0.580,1.129,-0.153,80.000,187.000,1.000
43757.340,41767.190,28996.165,37513.095,43706.338,43000.295,43731.223,39612.939,-0.110,0.742,-0.542,0.641,1.129,-0.153,80.000,188.000,1.000
43871.196,41883.175,29193.474,37690.897,43819.323,43120.203,43840.509,39724.261,-0.109,0.742,-0.542,0.671,1.160,-0.092,80.000,189.000,1.000
43972.109,41986.694,29381.310,37858.672,43920.583,43228.464,43938.523,39826.082,-0.110,0.744,-0.541,0.732,1.251,-0.031,80.000,190.000,1.000
44059.034,42077.338,29558.892,38015.637,44009.926,43324.745,44025.363,39918.386,-0.111,0.743,-0.542,0.763,1.312,0.000,80.000,191.000,1.000
44130.846,42154.642,29725.042,38159.725,44086.798,43408.675,44100.924,40000.526,-0.111,0.743,-0.547,0.824,1.190,0.153,80.000,192.000,1.000
44187.532,42218.698,29879.319,38289.657,44151.016,43480.265,44165.330,40071.887,-0.110,0.743,-0.547,0.916,1.251,0.092,80.000,193.000,1.000
44230.347,42270.235,30022.335,38405.824,44202.946,43539.872,44218.894,40132.138,-0.109,0.741,-0.540,0.977,1.312,0.092,80.000,194.000,1.000
44260.899,42310.185,30155.196,38509.485,44243.031,43587.870,44261.678,40181.008,-0.110,0.741,-0.543,1.129,1.373,0.061,80.000,195.000,1.000
44280.428,42339.313,30278.969,38601.848,44271.403,43624.493,44293.296,40218.173,-0.112,0.742,-0.542,1.190,1.404,0.031,80.000,196.000,1.000
44289.720,42358.084,30394.465,38683.804,44287.878,43649.791,44313.103,40243.354,-0.113,0.743,-0.537,1.221,1.434,0.153,80.000,197.000,1.000
44288.933,42366.468,30501.912,38755.613,44291.860,43663.364,44320.240,40256.159,-0.111,0.744,-0.542,1.251,1.434,0.153,80.000,198.000,1.000
44277.335,42363.765,30600.670,38816.538,44282.259,43664.229,44313.581,40255.905,-0.113,0.745,-0.541,1.312,1.282,0.122,80.000,199.000,1.000
44253.896,42349.025,30689.742,38865.560,44258.059,43651.379,44292.129,40242.110,-0.112,0.745,-0.540,1.312,1.373,0.092,80.000,200.000,1.000
44218.269,42321.695,30768.578,38902.426,44219.122,43624.512,44255.628,40215.097,-0.112,0.745,-0.541,1.373,1.251,0.000,80.000,201.000,1.000
44170.778,42281.771,30837.156,38927.589,44166.284,43584.188,44204.719,40175.792,-0.111,0.747,-0.542,1.343,1.251,-0.031,80.000,202.000,1.000
44111.655,42229.620,30895.631,38941.692,44100.843,43531.435,44140.586,40125.164,-0.111,0.748,-0.542,1.404,1.251,-0.061,80.000,203.000,1.000
44040.792,42165.915,30944.280,38945.431,44024.073,43467.254,44064.387,40064.028,-0.112,0.749,-0.542,1.373,1.221,-0.122,80.000,204.000,1.000
43958.187,42091.582,30983.622,38939.357,43936.948,43392.323,43976.837,39993.074,-0.110,0.748,-0.542,1.251,1.160,-0.122,80.000,205.000,1.000
43864.372,42007.598,31014.340,38923.689,43840.082,43307.033,43878.278,39912.884,-0.110,0.748,-0.541,1.190,1.068,-0.153,80.000,206.000,1.000
43760.309,41914.670,31037.104,38898.674,43733.857,43211.713,43769.030,39823.911,-0.109,0.747,-0.541,1.221,1.038,-0.183,80.000,207.000,1.000
43646.835,41812.919,31052.389,38864.648,43618.504,43106.697,43649.541,39726.272,-0.109,0.746,-0.543,1.160,1.099,-0.275,80.000,208.000,1.000
43524.231,41701.890,31060.363,38821.425,43494.099,42992.274,43520.334,39619.605,-0.110,0.747,-0.542,1.068,1.068,-0.214,80.000,209.000,1.000
43392.439,41581.090,31061.025,38768.572,43360.797,42868.785,43382.110,39503.647,-0.108,0.747,-0.541,1.007,1.160,-0.244,80.000,210.000,1.000
43251.363,41450.473,31054.308,38706.114,43218.999,42736.663,43235.838,39378.974,-0.111,0.748,-0.541,1.038,1.099,-0.305,80.000,211.000,1.000
43100.721,41310.378,31039.931,38634.129,43069.071,42596.133,43082.405,39246.791,-0.111,0.747,-0.541,0.977,1.068,-0.366,80.000,212.000,1.000
42940.326,41161.413,31017.644,38552.621,42911.171,42447.082,42922.261,39108.231,-0.111,0.748,-0.542,0.916,1.099,-0.366,80.000,213.000,1.000
42770.840,41004.568,30987.896,38462.481,42745.513,42289.350,42755.455,38964.049,-0.111,0.748,-0.542,0.824,0.977,-0.427,80.000,214.000,1.000
42593.405,40840.854,30951.711,38365.307,42572.342,42122.878,42581.763,38814.448,-0.112,0.749,-0.542,0.793,0.885,-0.336,80.000,215.000,1.000
42408.285,40670.513,30909.669,38261.821,42391.493,41947.548,42400.717,38658.892,-0.112,0.748,-0.537,0.702,0.854,-0.336,80.000,216.000,1.000
42214.680,40492.890,30861.382,38151.352,42202.330,41763.267,42211.799,38496.371,-0.112,0.747,-0.542,0.702,0.946,-0.397,80.000,217.000,1.000
42011.923,40307.056,30805.965,38032.802,42004.223,41570.256,42014.751,38326.013,-0.113,0.746,-0.541,0.732,0.854,-0.427,80.000,218.000,1.000
41800.076,40112.308,30742.601,37905.327,41796.889,41369.102,41809.630,38147.342,-0.114,0.745,-0.543,0.763,0.793,-0.458,80.000,219.000,1.000
41579.340,39908.220,30670.681,37768.125,41580.309,41160.557,41596.542,37960.050,-0.115,0.746,-0.541,0.763,0.732,-0.458,80.000,220.000,1.000
41349.691,39694.719,30589.995,37620.613,41354.551,40945.341,41375.378,37763.834,-0.114,0.744,-0.542,0.641,0.671,-0.519,80.000,221.000,1.000
41111.462,39472.392,30501.116,37463.343,41119.798,40723.998,41145.824,37558.514,-0.113,0.744,-0.541,0.641,0.641,-0.549,80.000,222.000,1.000
40865.725,39242.466,30405.278,37298.052,40876.439,40496.777,40907.649,37344.239,-0.115,0.744,-0.540,0.702,0.702,-0.580,80.000,223.000,1.000
40613.603,39006.134,30303.518,37126.458,40625.059,40263.521,40660.986,37121.622,-0.115,0.744,-0.542,0.641,0.610,-0.488,80.000,224.000,1.000
40355.344,38763.752,30195.988,36949.123,40366.225,40023.568,40406.195,36891.602,-0.115,0.746,-0.538,0.671,0.610,-0.580,80.000,225.000,1.000
40090.494,38514.886,30082.333,36765.604,40100.368,39775.886,40143.567,36655.094,-0.114,0.745,-0.538,0.702,0.580,-0.610,80.000,226.000,1.000
39818.910,38259.185,29962.732,36575.817,39828.037,39519.695,39873.332,36412.774,-0.112,0.744,-0.539,0.793,0.427,-0.641,80.000,227.000,1.000
39541.063,37996.871,29838.117,36380.845,39549.993,39254.910,39595.747,36165.017,-0.113,0.746,-0.540,0.885,0.427,-0.519,80.000,228.000,1.000
39257.347,37728.383,29709.153,36181.586,39266.703,38981.966,39310.951,35911.779,-0.113,0.748,-0.539,0.916,0.397,-0.427,80.000,229.000,1.000
38967.769,37454.066,29575.542,35977.171,38977.961,38701.555,39018.999,35652.652,-0.112,0.747,-0.541,0.916,0.397,-0.427,80.000,230.000,1.000
38672.451,37174.338,29436.659,35766.068,38683.309,38414.604,38720.143,35387.373,-0.112,0.746,-0.542,0.885,0.397,-0.427,80.000,231.000,1.000
38371.807,36889.702,29292.319,35548.058,38382.594,38122.081,38414.849,35116.192,-0.114,0.746,-0.541,0.854,0.397,-0.366,80.000,232.000,1.000
38065.983,36600.397,29142.567,35323.653,38075.924,37824.583,38103.476,34839.477,-0.112,0.746,-0.542,0.885,0.336,-0.275,80.000,233.000,1.000
37754.665,36306.215,28987.267,35092.561,37763.408,37522.247,37786.189,34557.190,-0.114,0.745,-0.541,0.854,0.336,-0.214,80.000,234.000,1.000
37437.620,36006.768,28826.289,34853.930,37445.178,37215.068,37463.232,34269.066,-0.114,0.744,-0.542,0.946,0.305,-0.244,80.000,235.000,1.000
37114.945,35701.804,28659.830,34607.649,37121.538,36903.179,37135.225,33975.312,-0.113,0.745,-0.541,0.946,0.366,-0.183,80.000,236.000,1.000
36786.759,35391.268,28488.370,34355.060,36793.021,36586.848,36803.193,33677.024,-0.115,0.746,-0.541,0.885,0.366,-0.275,80.000,237.000,1.000
36453.125,35075.215,28312.420,34098.371,36460.218,36266.221,36468.169,33375.776,-0.114,0.745,-0.541,0.854,0.427,-0.061,80.000,238.000,1.000
36114.256,34753.764,28132.289,33839.269,36123.496,35941.076,36130.603,33072.678,-0.114,0.745,-0.542,0.854,0.397,-0.061,80.000,239.000,1.000
35770.226,34427.016,27947.875,33577.797,35782.761,35610.820,35790.115,32767.692,-0.116,0.746,-0.543,0.763,0.336,-0.153,80.000,240.000,1.000
35420.457,34094.873,27758.497,33312.087,35437.359,35274.744,35445.817,32459.672,-0.113,0.743,-0.539,0.763,0.305,-0.153,80.000,241.000,1.000
35064.134,33757.182,27563.267,33039.579,35086.431,34932.481,35096.988,32147.200,-0.113,0.746,-0.540,0.763,0.366,-0.031,80.000,242.000,1.000
34701.370,33414.283,27361.997,32759.194,34729.644,34584.470,34743.622,31829.640,-0.113,0.746,-0.540,0.854,0.397,-0.122,80.000,243.000,1.000
34333.505,33067.099,27155.521,32472.125,34367.437,34231.847,34386.223,31507.332,-0.112,0.747,-0.540,0.885,0.427,-0.183,80.000,244.000,1.000
33962.067,32716.395,26944.907,32180.416,34000.408,33875.568,34024.970,31180.781,-0.112,0.747,-0.540,0.946,0.458,-0.153,80.000,245.000,1.000
33587.569,32362.051,26730.447,31885.032,33628.646,33515.641,33659.177,30849.917,-0.113,0.748,-0.540,0.977,0.488,-0.153,80.000,246.000,1.000
33209.423,32003.270,26511.582,31585.177,33251.822,33151.387,33287.707,30514.081,-0.112,0.746,-0.539,0.946,0.366,-0.153,80.000,247.000,1.000
32826.986,31639.515,26287.849,31279.515,32869.885,32782.375,32909.913,30172.593,-0.113,0.747,-0.537,0.946,0.519,-0.122,80.000,248.000,1.000
32440.399,31271.148,26059.706,30968.076,32483.489,32408.934,32526.171,29825.422,-0.110,0.745,-0.538,0.946,0.519,-0.153,80.000,249.000,1.000
32050.493,30899.203,25828.385,30652.482,32093.736,32031.822,32137.586,29473.404,-0.110,0.745,-0.539,1.099,0.610,-0.092,80.000,250.000,1.000
31658.355,30524.800,25595.159,30334.489,31701.674,31651.708,31745.322,29117.837,-0.110,0.746,-0.541,1.038,0.732,-0.122,80.000,251.000,1.000
31265.107,30148.928,25360.936,30015.247,31308.180,31269.125,31350.260,28759.995,-0.111,0.745,-0.541,1.038,0.702,-0.122,80.000,252.000,1.000
30871.644,29772.430,25126.245,29695.823,30914.025,30884.705,30953.029,28400.854,-0.112,0.748,-0.539,1.038,0.732,-0.122,80.000,253.000,1.000
30478.185,29395.696,24891.150,29377.157,30519.598,30499.018,30554.012,28040.829,-0.111,0.746,-0.538,1.038,0.793,-0.092,80.000,254.000,1.000
30084.074,29018.322,24655.073,29058.950,30124.489,30112.044,30153.222,27679.630,-0.108,0.744,-0.541,1.007,0.854,-0.122,80.000,255.000,1.000
29688.151,28639.291,24416.960,28739.111,29727.634,29723.056,29750.396,27316.542,-0.110,0.745,-0.540,1.068,0.946,-0.244,80.000,256.000,1.000
29289.400,28257.632,24175.852,28414.943,29328.068,29331.220,29345.352,26951.021,-0.111,0.747,-0.542,1.007,0.977,-0.275,80.000,257.000,1.000
28887.365,27873.030,23931.373,28085.142,28925.545,28936.338,28938.273,26583.117,-0.111,0.747,-0.542,1.007,1.038,-0.275,80.000,258.000,1.000
28482.147,27485.846,23683.626,27750.512,28520.443,28538.907,28529.615,26213.408,-0.112,0.747,-0.541,1.038,1.129,-0.305,80.000,259.000,1.000
28073.885,27096.430,23432.476,27412.622,28113.012,28139.365,28119.642,25842.363,-0.112,0.747,-0.542,1.038,1.251,-0.336,80.000,260.000,1.000
27662.237,26704.456,23177.105,27072.017,27702.735,27737.361,27707.972,25469.670,-0.112,0.747,-0.543,1.038,1.221,-0.397,80.000,261.000,1.000
27246.577,26309.097,22916.502,26727.801,27288.593,27331.987,27293.759,25094.328,-0.112,0.746,-0.540,1.068,1.221,-0.305,80.000,262.000,1.000
26826.710,25909.814,22650.357,26378.574,26870.068,26922.742,26876.528,24715.598,-0.112,0.746,-0.539,0.946,1.282,-0.305,80.000,263.000,1.000
26403.453,25506.992,22379.577,26023.882,26447.916,26510.277,26456.985,24334.089,-0.114,0.747,-0.539,0.977,1.343,-0.336,80.000,264.000,1.000
25978.426,25101.768,22106.032,25665.067,26023.865,26096.147,26036.876,23951.826,-0.113,0.747,-0.541,0.946,1.373,-0.275,80.000,265.000,1.000
25552.908,24695.054,21831.427,25304.447,25599.358,25681.654,25617.699,23570.871,-0.114,0.746,-0.540,0.916,1.373,-0.275,80.000,266.000,1.000
25126.895,24286.847,21556.269,24943.544,25174.592,25266.941,25199.519,23191.737,-0.113,0.747,-0.538,0.854,1.282,-0.275,80.000,267.000,1.000
24699.529,23876.776,21280.113,24582.597,24748.874,24851.378,24781.160,22813.205,-0.111,0.746,-0.537,0.946,1.495,-0.153,80.000,268.000,1.000
24270.286,23465.089,21002.603,24221.665,24321.750,24434.598,24361.359,22433.515,-0.113,0.747,-0.543,0.946,1.495,-0.153,80.000,269.000,1.000
23839.464,23052.720,20723.801,23860.922,23893.458,24016.820,23939.449,22051.433,-0.114,0.747,-0.539,0.946,1.495,-0.183,80.000,270.000,1.000
23407.784,22640.578,20443.718,23499.719,23464.486,23598.445,23515.261,21666.466,-0.113,0.748,-0.540,0.885,1.526,-0.275,80.000,271.000,1.000
22975.977,22229.088,20162.184,23136.748,23035.181,23179.756,23088.952,21278.802,-0.112,0.748,-0.540,0.854,1.556,-0.214,80.000,272.000,1.000
22544.513,21818.174,19879.088,22771.212,22605.673,22760.807,22660.822,20889.128,-0.112,0.748,-0.540,0.763,1.556,-0.061,80.000,273.000,1.000
22113.294,21407.365,19594.457,22403.207,22175.855,22341.405,22231.054,20498.163,-0.114,0.746,-0.539,0.763,1.556,-0.122,80.000,274.000,1.000
21681.977,20996.233,19308.642,22033.669,21745.681,21921.468,21799.786,20106.391,-0.114,0.745,-0.537,0.824,1.587,-0.092,80.000,275.000,1.000
21250.787,20584.981,19022.562,21664.323,21315.621,21501.402,21367.465,19714.178,-0.113,0.747,-0.540,0.793,1.556,-0.122,80.000,276.000,1.000
20820.484,20174.270,18737.188,21296.751,20886.405,21081.770,20934.743,19321.724,-0.114,0.747,-0.538,0.793,1.495,-0.122,80.000,277.000,1.000
20391.421,19764.341,18452.552,20930.812,20458.149,20662.486,20501.877,18928.768,-0.114,0.747,-0.539,0.793,1.526,-0.061,80.000,278.000,1.000
19963.177,19354.703,18167.577,20564.375,20030.035,20242.619,20068.521,18534.752,-0.114,0.746,-0.537,0.732,1.465,-0.061,80.000,279.000,1.000
19535.241,18944.763,17881.017,20195.244,19601.055,19821.114,19634.267,18139.543,-0.114,0.747,-0.539,0.763,1.404,-0.092,80.000,280.000,1.000
19107.625,18534.459,17592.443,19823.269,19170.979,19397.646,19199.291,17743.837,-0.114,0.748,-0.540,0.732,1.434,0.031,80.000,281.000,1.000
18680.586,18124.234,17302.384,19450.300,18740.584,18972.858,18764.473,17348.812,-0.113,0.747,-0.538,0.793,1.465,0.000,80.000,282.000,1.000
18254.066,17714.595,17011.763,19078.376,18311.039,18547.963,18330.996,16955.493,-0.112,0.745,-0.538,0.885,1.343,-0.061,80.000,283.000,1.000
17827.735,17305.756,16721.245,18708.306,17883.099,18124.108,17899.796,16564.408,-0.111,0.745,-0.539,0.854,1.434,0.061,80.000,284.000,1.000
17401.272,16897.376,16430.820,18339.599,17456.667,17701.909,17471.171,16175.526,-0.111,0.744,-0.537,0.946,1.343,0.000,80.000,285.000,1.000
16974.260,16488.454,16139.681,17970.963,17030.831,17281.228,17044.665,15788.307,-0.111,0.746,-0.538,0.946,1.343,0.000,80.000,286.000,1.000
16546.123,16077.839,15846.601,17600.833,16604.393,16861.391,16619.398,15401.898,-0.113,0.744,-0.536,0.977,1.282,-0.061,80.000,287.000,1.000
16116.588,15665.194,15550.741,17228.026,16176.648,16441.847,16194.763,15015.565,-0.112,0.744,-0.541,0.946,1.343,0.000,80.000,288.000,1.000
15686.139,15251.422,15252.183,16852.220,15747.802,16022.666,15770.795,14629.000,-0.112,0.745,-0.538,1.038,1.343,-0.031,80.000,289.000,1.000
15255.761,14838.038,14951.708,16473.923,15318.647,15604.297,15347.786,14242.221,-0.112,0.745,-0.540,1.099,1.312,-0.031,80.000,290.000,1.000
14826.291,14426.178,14650.213,16094.353,14889.938,15186.987,14925.680,13855.293,-0.113,0.745,-0.538,1.068,1.282,0.061,80.000,291.000,1.000
14398.196,14016.203,14348.447,15715.307,14462.096,14770.650,14503.958,13468.215,-0.113,0.745,-0.538,1.190,1.190,-0.031,80.000,292.000,1.000
13971.891,13608.086,14047.146,15338.727,14035.433,14355.289,14082.123,13081.117,-0.112,0.746,-0.540,1.160,1.099,0.031,80.000,293.000,1.000
13547.855,13201.800,13747.086,14965.712,13610.390,13941.283,13660.167,12694.434,-0.110,0.747,-0.539,1.160,1.160,0.061,80.000,294.000,1.000
13126.278,12797.191,13448.779,14595.707,13187.330,13528.959,13238.486,12308.647,-0.111,0.746,-0.536,1.251,1.129,-0.061,80.000,295.000,1.000
12706.876,12393.824,13152.216,14227.048,12766.243,13118.026,12817.446,11923.927,-0.113,0.745,-0.537,1.343,1.038,-0.031,80.000,296.000,1.000
12289.052,11991.221,12856.838,13858.068,12346.787,12707.591,12397.101,11540.090,-0.113,0.745,-0.540,1.373,0.977,-0.031,80.000,297.000,1.000
11872.170,11589.198,12561.803,13487.777,11928.589,12296.804,11977.306,11156.854,-0.115,0.746,-0.539,1.373,0.977,0.000,80.000,298.000,1.000
11455.977,11188.069,12266.610,13116.531,11511.695,11885.624,11558.097,10774.236,-0.113,0.746,-0.539,1.404,0.946,0.000,80.000,299.000,1.000
11040.956,10788.652,11971.577,12746.056,11096.753,11475.009,11139.943,10392.742,-0.115,0.747,-0.538,1.404,1.007,-0.061,80.000,300.000,1.000
10628.135,10391.922,11677.513,12378.153,10684.591,11066.228,10723.616,10013.210,-0.114,0.746,-0.541,1.434,1.007,-0.092,80.000,301.000,1.000
10218.424,9998.469,11384.944,12013.400,10275.507,10659.932,10309.784,9636.389,-0.113,0.747,-0.538,1.495,1.068,0.031,80.000,302.000,1.000
9811.931,9608.223,11093.645,11650.969,9868.929,10255.901,9898.650,9262.484,-0.113,0.745,-0.539,1.373,0.946,-0.061,80.000,303.000,1.000
9407.944,9220.637,10802.917,11289.454,9463.856,9853.523,9489.964,8891.074,-0.113,0.746,-0.541,1.404,1.007,0.000,80.000,304.000,1.000
9005.783,8835.178,10512.463,10928.229,9059.795,9452.451,9083.469,8521.621,-0.113,0.745,-0.542,1.526,0.885,0.000,80.000,305.000,1.000
8605.366,8451.579,10222.736,10567.969,8657.150,9052.864,8679.261,8153.938,-0.114,0.747,-0.540,1.465,1.007,0.000,80.000,306.000,1.000
8206.581,8069.517,9934.078,10209.267,8256.534,8655.156,8277.573,7788.049,-0.111,0.744,-0.542,1.526,0.977,0.000,80.000,307.000,1.000
7808.770,7688.352,9645.949,9851.507,7857.970,8259.489,7878.438,7423.928,-0.111,0.744,-0.540,1.495,1.038,0.031,80.000,308.000,1.000
7411.416,7307.483,9357.455,9493.890,7461.062,7865.874,7481.759,7061.633,-0.114,0.742,-0.538,1.526,1.007,0.031,80.000,309.000,1.000
7014.823,6926.846,9068.192,9136.644,7065.671,7474.543,7087.602,6701.431,-0.113,0.744,-0.539,1.587,0.946,0.061,80.000,310.000,1.000
6619.787,6546.973,8778.416,8780.762,6672.216,7086.042,6696.347,6343.696,-0.110,0.744,-0.538,1.587,0.977,0.061,80.000,311.000,1.000
6226.872,6168.654,8488.659,8426.773,6281.281,6700.815,6308.489,5988.661,-0.110,0.745,-0.540,1.617,1.038,0.092,80.000,312.000,1.000
5836.141,5792.493,8199.289,8073.869,5893.005,6318.676,5924.116,5636.107,-0.110,0.747,-0.543,1.648,1.038,0.061,80.000,313.000,1.000
5447.654,5418.903,7910.629,7721.081,5507.108,5938.831,5542.660,5285.551,-0.111,0.746,-0.542,1.617,1.099,0.153,80.000,314.000,1.000
5062.009,5048.355,7623.423,7369.140,5123.444,5560.503,5163.228,4936.790,-0.111,0.746,-0.542,1.617,1.068,0.000,80.000,315.000,1.000
4679.936,4681.215,7338.542,7019.898,4742.048,5183.329,4784.939,4589.845,-0.110,0.746,-0.538,1.556,1.099,-0.031,80.000,316.000,1.000
4301.528,4317.379,7056.175,6674.282,4362.744,4807.330,4407.045,4244.506,-0.109,0.748,-0.542,1.587,1.221,0.000,80.000,317.000,1.000
3926.330,3956.442,6775.834,6331.951,3985.295,4432.912,4029.256,3900.437,-0.109,0.748,-0.540,1.556,1.160,0.000,80.000,318.000,1.000
3553.865,3598.132,6497.024,5992.261,3609.889,4060.796,3652.057,3557.557,-0.109,0.748,-0.541,1.526,1.190,-0.031,80.000,319.000,1.000
3183.791,3242.434,6219.498,5654.581,3237.150,3691.704,3276.480,3215.980,-0.110,0.747,-0.542,1.434,1.312,-0.061,80.000,320.000,1.000
2816.036,2889.571,5943.219,5318.272,2867.809,3326.157,2903.600,2875.891,-0.113,0.747,-0.541,1.404,1.251,-0.031,80.000,321.000,1.000
2451.101,2540.067,5668.552,4983.336,2502.525,2964.575,2534.217,2537.778,-0.112,0.747,-0.544,1.373,1.221,-0.031,80.000,322.000,1.000
2089.908,2194.680,5396.324,4650.799,2141.785,2607.272,2168.790,2202.528,-0.111,0.746,-0.541,1.343,1.251,-0.122,80.000,323.000,1.000
1733.166,1854.014,5127.298,4321.658,1785.659,2254.156,1807.496,1871.075,-0.112,0.747,-0.542,1.251,1.221,-0.092,80.000,324.000,1.000
1380.953,1518.087,4861.604,3995.802,1433.702,1904.561,1450.436,1544.106,-0.110,0.747,-0.541,1.251,1.160,-0.122,80.000,325.000,1.000
1032.756,1186.096,4598.628,3672.414,1085.207,1557.524,1097.790,1222.014,-0.112,0.747,-0.541,1.251,1.251,-0.061,80.000,326.000,1.000
687.546,856.437,4337.082,3350.753,739.456,1212.133,749.653,904.761,-0.110,0.746,-0.544,1.221,1.282,-0.183,80.000,327.000,1.000
344.018,527.203,4075.366,3030.449,395.873,867.836,405.803,591.834,-0.110,0.746,-0.542,1.190,1.343,-0.183,80.000,328.000,1.000
1.224,197.156,3812.415,2711.641,54.181,524.778,65.732,282.454,-0.108,0.746,-0.542,1.190,1.434,-0.214,80.000,329.000,1.000
-340.814,-133.547,3548.317,2394.871,-285.563,183.881,-271.098,-24.225,-0.111,0.747,-0.542,1.129,1.495,-0.214,80.000,330.000,1.000
-681.172,-463.541,3284.044,2080.580,-623.111,-153.545,-604.993,-328.971,-0.110,0.746,-0.540,1.099,1.373,-0.183,80.000,331.000,1.000
-1018.839,-791.209,3020.635,1768.530,-958.213,-486.417,-935.950,-632.287,-0.110,0.745,-0.542,1.190,1.373,-0.061,80.000,332.000,1.000
-1353.333,-1115.495,2758.664,1457.887,-1290.678,-814.240,-1263.728,-934.296,-0.110,0.743,-0.543,1.038,1.465,-0.122,80.000,333.000,1.000
-1684.530,-1436.063,2498.268,1147.907,-1620.388,-1137.168,-1588.072,-1234.844,-0.112,0.743,-0.542,1.129,1.495,-0.031,80.000,334.000,1.000
-2012.194,-1752.887,2239.552,838.651,-1947.303,-1455.828,-1908.955,-1533.663,-0.112,0.744,-0.541,1.160,1.465,-0.031,80.000,335.000,1.000
-2335.834,-2065.697,1983.061,531.339,-2271.285,-1770.966,-2226.635,-1830.292,-0.113,0.743,-0.541,1.221,1.404,-0.092,80.000,336.000,1.000
-2655.036,-2373.894,1729.650,227.559,-2592.050,-2083.269,-2541.657,-2124.173,-0.113,0.746,-0.541,1.251,1.312,-0.153,80.000,337.000,1.000
-2969.760,-2677.041,1479.868,-71.890,-2909.379,-2393.389,-2854.778,-2415.028,-0.113,0.746,-0.540,1.221,1.312,-0.153,80.000,338.000,1.000
-3280.143,-2975.227,1233.715,-366.975,-3223.187,-2701.848,-3166.674,-2702.987,-0.111,0.742,-0.541,1.282,1.343,-0.214,80.000,339.000,1.000
-3586.307,-3269.010,990.877,-658.077,-3533.404,-3008.783,-3477.525,-2988.430,-0.111,0.740,-0.537,1.251,1.312,-0.214,80.000,340.000,1.000
-3888.356,-3559.060,751.028,-945.924,-3839.764,-3313.727,-3786.676,-3271.592,-0.112,0.740,-0.542,1.404,1.282,-0.153,80.000,341.000,1.000
-4186.206,-3845.704,514.127,-1230.979,-4141.582,-3615.588,-4092.644,-3552.077,-0.111,0.737,-0.541,1.312,1.251,-0.122,80.000,342.000,1.000
-4479.540,-4128.757,280.405,-1512.827,-4437.931,-3913.085,-4393.802,-3828.875,-0.111,0.738,-0.539,1.556,1.343,-0.183,80.000,343.000,1.000
-4768.342,-4407.909,49.885,-1790.621,-4728.275,-4205.493,-4689.328,-4100.969,-0.109,0.737,-0.540,1.587,1.282,-0.183,80.000,344.000,1.000
-5053.349,-4683.214,-177.986,-2064.057,-5012.969,-4493.085,-4979.560,-4367.870,-0.107,0.737,-0.538,1.709,1.129,-0.153,80.000,345.000,1.000
-5335.674,-4955.215,-404.152,-2333.778,-5293.215,-4776.951,-5265.556,-4629.713,-0.107,0.741,-0.543,1.770,1.221,-0.092,80.000,346.000,1.000
-5615.963,-5224.667,-629.395,-2600.788,-5570.562,-5058.452,-5548.400,-4887.053,-0.110,0.742,-0.542,1.862,1.160,-0.092,80.000,347.000,1.000
-5894.023,-5492.094,-853.917,-2865.501,-5846.170,-5338.466,-5828.683,-5140.535,-0.111,0.741,-0.542,1.953,1.129,-0.061,80.000,348.000,1.000
-6169.369,-5757.548,-1077.474,-3127.787,-6120.383,-5616.890,-6106.339,-5390.717,-0.111,0.740,-0.541,1.923,1.221,-0.031,80.000,349.000,1.000
-6442.050,-6020.909,-1299.952,-3388.021,-6393.020,-5892.903,-6380.957,-5638.208,-0.113,0.740,-0.538,2.045,1.221,-0.092,80.000,350.000,1.000
-6712.665,-6282.298,-1521.614,-3647.250,-6663.913,-6165.718,-6652.251,-5883.632,-0.113,0.740,-0.539,1.984,1.190,-0.061,80.000,351.000,1.000
-6981.581,-6541.928,-1742.693,-3905.996,-6932.918,-6434.937,-6920.110,-6127.116,-0.113,0.743,-0.541,1.984,1.160,-0.061,80.000,352.000,1.000
-7248.294,-6799.596,-1962.867,-4163.360,-7199.470,-6700.308,-7184.156,-6367.899,-0.112,0.746,-0.545,2.045,1.068,-0.031,80.000,353.000,1.000
-7511.508,-7054.487,-2181.239,-4417.362,-7462.392,-6961.387,-7443.445,-6604.614,-0.111,0.749,-0.543,2.045,1.007,-0.183,80.000,354.000,1.000
-7769.851,-7305.502,-2396.749,-4666.125,-7720.324,-7217.578,-7696.868,-6836.104,-0.110,0.751,-0.545,1.953,1.068,-0.031,80.000,355.000,1.000
-8022.663,-7551.749,-2608.615,-4909.112,-7972.458,-7468.520,-7944.002,-7062.212,-0.110,0.751,-0.545,1.892,0.977,-0.092,80.000,356.000,1.000
-8270.332,-7792.927,-2816.738,-5147.742,-8219.059,-7714.440,-8185.578,-7284.151,-0.113,0.752,-0.544,1.831,0.885,0.000,80.000,357.000,1.000
-8513.902,-8029.363,-3021.794,-5384.565,-8461.251,-7956.065,-8423.139,-7504.006,-0.113,0.749,-0.545,1.678,0.885,0.061,80.000,358.000,1.000
-8754.169,-8261.614,-3224.693,-5621.322,-8700.183,-8194.149,-8658.239,-7723.508,-0.113,0.748,-0.547,1.556,0.885,0.122,80.000,359.000,1.000
-8991.015,-8489.926,-3425.753,-5857.724,-8936.307,-8429.079,-8891.816,-7943.123,-0.111,0.750,-0.543,1.465,0.793,0.000,80.000,360.000,1.000
-9223.575,-8714.056,-3624.411,-6091.853,-9169.327,-8660.817,-9124.048,-8162.114,-0.110,0.751,-0.541,1.343,0.671,0.000,80.000,361.000,1.000
-9451.096,-8933.612,-3819.759,-6321.502,-9398.707,-8889.127,-9354.583,-8379.201,-0.109,0.750,-0.542,1.282,0.732,0.061,80.000,362.000,1.000
-9673.552,-9148.423,-4011.279,-6545.372,-9624.106,-9113.855,-9582.832,-8593.123,-0.108,0.749,-0.543,1.099,0.732,0.092,80.000,363.000,1.000
-9891.451,-9358.546,-4199.007,-6763.341,-9845.381,-9335.056,-9808.081,-8802.850,-0.108,0.747,-0.545,1.099,0.763,0.122,80.000,364.000,1.000
-10105.444,-9564.261,-4383.417,-6976.352,-10062.539,-9553.050,-10029.643,-9007.731,-0.109,0.747,-0.545,1.068,0.885,0.061,80.000,365.000,1.000
-10316.179,-9766.163,-4565.322,-7186.084,-10275.778,-9768.230,-10247.067,-9207.625,-0.110,0.748,-0.547,0.946,0.885,0.092,80.000,366.000,1.000
-10524.001,-9964.918,-4745.404,-7393.751,-10485.201,-9980.543,-10460.095,-9402.615,-0.109,0.748,-0.541,0.885,0.977,0.214,80.000,367.000,1.000
-10728.665,-10160.899,-4923.712,-7599.057,-10690.522,-10189.251,-10668.530,-9592.642,-0.109,0.747,-0.540,0.916,1.068,0.153,80.000,368.000,1.000
-10929.696,-10354.227,-5099.901,-7801.033,-10891.467,-10393.497,-10872.399,-9777.784,-0.109,0.745,-0.541,0.854,0.977,0.183,80.000,369.000,1.000
-11127.004,-10545.014,-5273.838,-7999.656,-11088.362,-10593.025,-11072.108,-9958.740,-0.110,0.745,-0.542,0.763,1.068,0.183,80.000,370.000,1.000
-11320.783,-10733.262,-5445.612,-8195.683,-11281.908,-10788.170,-11268.093,-10136.494,-0.109,0.746,-0.541,0.763,1.068,0.183,80.000,371.000,1.000
-11510.934,-10918.612,-5615.110,-8389.179,-11472.413,-10979.342,-11460.307,-10311.481,-0.109,0.746,-0.541,0.671,1.190,0.122,80.000,372.000,1.000
-11697.134,-11100.526,-5782.031,-8579.419,-11659.608,-11166.840,-11648.264,-10483.407,-0.109,0.745,-0.541,0.671,1.221,0.122,80.000,373.000,1.000
-11879.457,-11278.813,-5946.346,-8766.122,-11843.211,-11351.138,-11831.640,-10651.907,-0.109,0.746,-0.541,0.641,1.221,0.122,80.000,374.000,1.000
-12058.556,-11453.836,-6108.524,-8949.964,-12023.333,-11532.930,-12010.658,-10817.068,-0.108,0.747,-0.541,0.519,1.221,0.061,80.000,375.000,1.000
-12235.036,-11625.974,-6269.080,-9131.782,-12200.176,-11712.570,-12185.729,-10979.163,-0.108,0.748,-0.541,0.427,1.282,0.061,80.000,376.000,1.000
-12408.807,-11795.031,-6427.980,-9311.554,-12373.523,-11889.551,-12356.876,-11138.144,-0.109,0.748,-0.539,0.336,1.282,-0.061,80.000,377.000,1.000
-12579.249,-11960.357,-6584.662,-9488.319,-12542.831,-12062.719,-12523.762,-11293.647,-0.109,0.749,-0.541,0.305,1.251,0.000,80.000,378.000,1.000
-12745.771,-12121.366,-6738.521,-9661.075,-12707.738,-12230.925,-12686.200,-11445.426,-0.109,0.750,-0.541,0.244,1.221,-0.092,80.000,379.000,1.000
-12908.023,-12277.836,-6889.248,-9829.602,-12868.358,-12393.535,-12844.462,-11593.694,-0.108,0.750,-0.542,0.214,1.251,-0.122,80.000,380.000,1.000
-13065.891,-12430.018,-7036.920,-9994.369,-13025.145,-12550.631,-12999.168,-11738.998,-0.109,0.749,-0.540,0.183,1.373,-0.153,80.000,381.000,1.000
-13219.452,-12578.458,-7181.743,-10155.681,-13178.510,-12702.828,-13150.920,-11881.738,-0.109,0.750,-0.540,0.122,1.282,-0.153,80.000,382.000,1.000
-13368.868,-12723.583,-7323.710,-10313.285,-13328.602,-12850.907,-13300.041,-12021.940,-0.111,0.751,-0.540,0.000,1.251,-0.275,80.000,383.000,1.000
-13514.323,-12865.484,-7462.690,-10466.978,-13475.408,-12995.629,-13446.605,-12159.430,-0.112,0.751,-0.540,0.000,1.251,-0.275,80.000,384.000,1.000
-13656.006,-13003.948,-7598.742,-10617.307,-13618.909,-13137.666,-13590.548,-12293.996,-0.113,0.749,-0.541,-0.061,1.282,-0.336,80.000,385.000,1.000
-13794.038,-13138.572,-7732.095,-10765.239,-13759.040,-13277.481,-13731.652,-12425.362,-0.114,0.747,-0.539,-0.092,1.190,-0.275,80.000,386.000,1.000
-13928.340,-13269.002,-7862.878,-10910.877,-13895.591,-13415.245,-13869.549,-12553.121,-0.112,0.747,-0.537,-0.092,1.160,-0.183,80.000,387.000,1.000
-14058.667,-13395.257,-7991.189,-11053.222,-14028.375,-13550.900,-14003.964,-12676.998,-0.112,0.747,-0.537,-0.214,1.160,-0.122,80.000,388.000,1.000
-14184.850,-13517.773,-8117.340,-11191.636,-14157.462,-13684.181,-14134.937,-12797.247,-0.112,0.748,-0.538,-0.183,1.251,-0.153,80.000,389.000,1.000
-14306.965,-13637.067,-8241.619,-11326.682,-14282.976,-13814.460,-14262.461,-12914.348,-0.113,0.748,-0.541,-0.153,1.129,-0.092,80.000,390.000,1.000
-14425.397,-13753.368,-8363.833,-11459.239,-14404.622,-13940.699,-14385.897,-13028.160,-0.113,0.746,-0.542,-0.153,1.099,-0.061,80.000,391.000,1.000
-14540.726,-13866.552,-8483.363,-11589.562,-14521.638,-14061.823,-14504.074,-13137.769,-0.112,0.744,-0.538,-0.092,1.038,-0.031,80.000,392.000,1.000
-14653.330,-13976.323,-8599.692,-11717.375,-14633.368,-14177.324,-14616.172,-13242.394,-0.113,0.745,-0.536,-0.092,1.038,0.122,80.000,393.000,1.000
-14763.053,-14082.425,-8712.737,-11842.243,-14739.903,-14287.598,-14722.475,-13342.243,-0.115,0.745,-0.538,-0.092,1.038,0.183,80.000,394.000,1.000
-14869.406,-14184.751,-8822.781,-11963.754,-14842.131,-14393.683,-14824.250,-13438.408,-0.115,0.746,-0.539,0.000,0.946,0.214,80.000,395.000,1.000
-14971.902,-14283.230,-8930.134,-12081.526,-14941.059,-14496.525,-14922.965,-13531.993,-0.115,0.747,-0.541,0.061,0.763,0.183,80.000,396.000,1.000
-15069.984,-14377.708,-9034.675,-12194.860,-15037.018,-14596.373,-15019.468,-13623.277,-0.116,0.748,-0.542,0.000,0.732,0.305,80.000,397.000,1.000
-15163.296,-14468.303,-9135.975,-12302.931,-15129.732,-14692.980,-15113.861,-13711.776,-0.116,0.746,-0.540,0.092,0.732,0.275,80.000,398.000,1.000
-15252.475,-14555.840,-9234.137,-12405.896,-15219.176,-14786.320,-15206.008,-13797.105,-0.116,0.748,-0.538,0.153,0.671,0.366,80.000,399.000,1.000
-15339.045,-14641.445,-9330.085,-12505.203,-15305.915,-14876.777,-15295.771,-13879.380,-0.113,0.747,-0.535,0.305,0.702,0.427,80.000,400.000,1.000
-15424.193,-14725.691,-9424.937,-12602.645,-15390.634,-14964.687,-15382.776,-13958.844,-0.113,0.745,-0.536,0.275,0.671,0.549,80.000,401.000,1.000
-15507.902,-14808.278,-9519.293,-12699.390,-15473.669,-15049.996,-15466.385,-14035.521,-0.114,0.745,-0.537,0.458,0.610,0.641,80.000,402.000,1.000
-15589.011,-14888.173,-9612.801,-12795.185,-15554.767,-15132.320,-15545.974,-14109.126,-0.113,0.746,-0.535,0.610,0.610,0.641,80.000,403.000,1.000
-15665.934,-14964.080,-9704.248,-12888.444,-15633.149,-15211.269,-15621.268,-14179.297,-0.113,0.741,-0.532,0.763,0.641,0.641,80.000,404.000,1.000
-15737.730,-15035.254,-9792.534,-12978.165,-15708.127,-15286.855,-15692.712,-14246.225,-0.112,0.742,-0.537,0.885,0.519,0.610,80.000,405.000,1.000
-15804.553,-15101.935,-9877.419,-13065.001,-15779.563,-15359.492,-15761.344,-14310.735,-0.111,0.740,-0.539,0.977,0.488,0.732,80.000,406.000,1.000
-15867.194,-15164.865,-9959.184,-13149.707,-15847.585,-15429.478,-15828.053,-14373.388,-0.111,0.742,-0.536,1.068,0.610,0.793,80.000,407.000,1.000
-15926.456,-15224.617,-10038.045,-13231.894,-15912.194,-15496.681,-15893.082,-14434.000,-0.109,0.741,-0.534,1.190,0.610,0.916,80.000,408.000,1.000
-15982.659,-15281.359,-10114.033,-13310.562,-15973.319,-15560.783,-15956.177,-14492.133,-0.109,0.742,-0.538,1.404,0.702,0.885,80.000,409.000,1.000
-16035.538,-15335.003,-10187.124,-13384.877,-16030.966,-15621.679,-16016.896,-14547.519,-0.109,0.743,-0.539,1.373,0.763,0.885,80.000,410.000,1.000
-16084.842,-15385.485,-10257.444,-13454.750,-16085.136,-15679.564,-16074.693,-14600.002,-0.109,0.744,-0.540,1.617,0.641,0.916,80.000,411.000,1.000
-16130.952,-15432.908,-10325.431,-13521.237,-16135.715,-15734.710,-16128.956,-14649.548,-0.109,0.743,-0.541,1.678,0.702,0.977,80.000,412.000,1.000
-16174.686,-15477.485,-10391.734,-13585.797,-16182.505,-15787.216,-16179.122,-14696.222,-0.110,0.740,-0.540,1.923,0.732,0.916,80.000,413.000,1.000
-16216.606,-15519.376,-10456.778,-13648.847,-16225.246,-15836.894,-16224.766,-14739.863,-0.108,0.737,-0.538,2.045,0.763,0.946,80.000,414.000,1.000
-16256.760,-15558.687,-10520.510,-13709.721,-16263.790,-15883.441,-16265.753,-14780.048,-0.107,0.735,-0.537,2.197,0.854,0.885,80.000,415.000,1.000
-16294.850,-15595.464,-10582.467,-13767.737,-16298.244,-15926.634,-16302.215,-14816.381,-0.109,0.739,-0.541,2.380,0.885,0.854,80.000,416.000,1.000
-16330.083,-15629.418,-10641.784,-13822.172,-16328.665,-15966.150,-16334.079,-14848.332,-0.111,0.741,-0.540,2.533,0.885,0.793,80.000,417.000,1.000
-16361.146,-15659.873,-10697.453,-13871.984,-16354.895,-16001.505,-16360.852,-14875.101,-0.110,0.743,-0.541,2.686,0.916,0.763,80.000,418.000,1.000
-16387.228,-15686.445,-10749.223,-13917.108,-16377.189,-16032.511,-16382.354,-14896.385,-0.106,0.742,-0.541,2.747,0.916,0.793,80.000,419.000,1.000
-16408.997,-15709.490,-10798.073,-13959.422,-16396.609,-16059.508,-16399.433,-14913.123,-0.106,0.743,-0.542,2.808,1.007,0.824,80.000,420.000,1.000
-16427.914,-15729.548,-10845.230,-14000.971,-16414.293,-16082.867,-16413.608,-14926.935,-0.107,0.746,-0.541,2.777,0.946,0.793,80.000,421.000,1.000
-16444.694,-15746.623,-10890.850,-14041.559,-16430.505,-16102.430,-16426.091,-14938.949,-0.108,0.744,-0.539,2.808,0.854,0.610,80.000,422.000,1.000
-16458.926,-15760.279,-10934.131,-14079.243,-16444.648,-16117.566,-16437.278,-14949.513,-0.109,0.744,-0.540,2.716,0.854,0.519,80.000,423.000,1.000
-16470.099,-15770.330,-10974.576,-14113.021,-16456.154,-16127.841,-16447.089,-14958.906,-0.110,0.745,-0.541,2.686,0.916,0.458,80.000,424.000,1.000
-16478.447,-15777.328,-11012.771,-14143.870,-16465.232,-16133.730,-16455.559,-14967.808,-0.111,0.744,-0.539,2.716,0.885,0.336,80.000,425.000,1.000
-16484.681,-15782.390,-11049.888,-14173.095,-16472.659,-16136.636,-16462.873,-14976.745,-0.111,0.745,-0.539,2.655,0.793,0.275,80.000,426.000,1.000
-16489.381,-15786.520,-11086.772,-14200.979,-16478.933,-16138.179,-16468.949,-14985.274,-0.110,0.748,-0.538,2.441,0.793,0.092,80.000,427.000,1.000
-16492.790,-15790.144,-11123.559,-14227.276,-16483.903,-16139.530,-16473.344,-14992.142,-0.108,0.747,-0.543,2.411,0.763,0.031,80.000,428.000,1.000
-16494.759,-15793.199,-11159.826,-14251.938,-16487.131,-16141.297,-16475.659,-14996.278,-0.107,0.748,-0.541,2.350,0.671,-0.092,80.000,429.000,1.000
-16494.537,-15795.194,-11194.612,-14274.744,-16488.153,-16143.531,-16475.783,-14997.391,-0.108,0.748,-0.541,2.167,0.732,-0.092,80.000,430.000,1.000
-16490.514,-15794.799,-11226.184,-14294.487,-16486.175,-16145.469,-16473.570,-14995.590,-0.107,0.748,-0.544,2.167,0.763,-0.183,80.000,431.000,1.000
-16480.720,-15789.887,-11252.473,-14309.228,-16479.907,-16145.521,-16468.462,-14990.823,-0.106,0.750,-0.542,1.984,0.732,-0.183,80.000,432.000,1.000
-16464.096,-15778.721,-11272.399,-14317.814,-16468.197,-16142.007,-16459.751,-14982.955,-0.104,0.750,-0.544,1.801,0.732,-0.214,80.000,433.000,1.000
-16441.236,-15761.098,-11286.680,-14320.839,-16450.829,-16134.058,-16447.095,-14972.077,-0.104,0.751,-0.546,1.678,0.854,-0.214,80.000,434.000,1.000
-16413.982,-15738.309,-11297.285,-14320.084,-16428.623,-16121.837,-16430.561,-14958.390,-0.103,0.750,-0.546,1.587,0.946,-0.122,80.000,435.000,1.000
-16384.574,-15712.272,-11306.338,-14317.438,-16402.873,-16106.047,-16410.332,-14941.917,-0.103,0.750,-0.547,1.434,1.038,-0.183,80.000,436.000,1.000
-16354.673,-15684.600,-11315.235,-14313.993,-16374.677,-16087.376,-16386.662,-14922.547,-0.104,0.751,-0.548,1.282,1.160,-0.183,80.000,437.000,1.000
-16324.550,-15656.059,-11324.211,-14309.581,-16344.544,-16066.228,-16360.008,-14900.325,-0.103,0.750,-0.547,1.038,1.282,-0.214,80.000,438.000,1.000
-16293.154,-15626.466,-11332.426,-14303.107,-16312.317,-16042.587,-16330.843,-14875.479,-0.103,0.752,-0.550,1.007,1.343,-0.275,80.000,439.000,1.000
-16259.115,-15595.067,-11338.637,-14293.561,-16277.486,-16016.048,-16299.354,-14848.228,-0.104,0.751,-0.549,0.885,1.404,-0.336,80.000,440.000,1.000
-16221.850,-15561.223,-11342.126,-14281.077,-16239.795,-15986.176,-16265.507,-14818.784,-0.103,0.750,-0.545,0.732,1.434,-0.305,80.000,441.000,1.000
-16181.705,-15524.807,-11342.985,-14266.744,-16199.472,-15952.849,-16229.086,-14787.143,-0.103,0.750,-0.545,0.519,1.495,-0.336,80.000,442.000,1.000
-16139.248,-15486.122,-11341.631,-14251.135,-16156.887,-15916.283,-16189.546,-14752.661,-0.102,0.750,-0.544,0.488,1.556,-0.397,80.000,443.000,1.000
-16094.906,-15445.829,-11338.577,-14233.759,-16112.423,-15876.959,-16146.283,-14714.360,-0.104,0.751,-0.548,0.427,1.495,-0.458,80.000,444.000,1.000
-16049.188,-15404.767,-11334.543,-14214.044,-16066.569,-15835.432,-16099.226,-14671.807,-0.105,0.749,-0.545,0.244,1.648,-0.549,80.000,445.000,1.000
-16002.569,-15363.295,-11330.067,-14191.746,-16019.628,-15791.890,-16048.913,-14625.385,-0.105,0.747,-0.545,0.061,1.678,-0.702,80.000,446.000,1.000
-15954.955,-15320.696,-11324.972,-14166.575,-15971.344,-15745.948,-15995.999,-14575.785,-0.104,0.746,-0.546,0.000,1.770,-0.854,80.000,447.000,1.000
-15905.701,-15275.520,-11318.622,-14138.667,-15921.174,-15697.175,-15941.021,-14523.710,-0.104,0.746,-0.547,-0.031,1.831,-0.946,80.000,448.000,1.000
-15854.402,-15226.691,-11310.677,-14109.458,-15868.957,-15645.783,-15884.581,-14470.103,-0.104,0.745,-0.544,-0.031,1.892,-1.007,80.000,449.000,1.000
-15801.265,-15174.228,-11301.279,-14080.967,-15815.083,-15592.565,-15827.391,-14416.099,-0.104,0.744,-0.547,-0.031,1.892,-1.099,80.000,450.000,1.000
-15746.537,-15118.948,-11290.536,-14053.707,-15759.957,-15538.102,-15769.862,-14362.422,-0.104,0.746,-0.546,-0.183,1.862,-1.068,80.000,451.000,1.000
-15690.095,-15061.793,-11278.282,-14026.088,-15703.617,-15482.322,-15711.869,-14309.058,-0.105,0.744,-0.541,-0.092,1.892,-1.221,80.000,452.000,1.000
-15631.739,-15003.418,-11264.374,-13996.031,-15645.861,-15424.864,-15652.962,-14255.554,-0.106,0.741,-0.541,-0.092,2.045,-1.312,80.000,453.000,1.000
-15571.317,-14944.035,-11248.856,-13962.240,-15586.312,-15365.529,-15592.556,-14201.241,-0.107,0.743,-0.543,-0.122,2.014,-1.434,80.000,454.000,1.000
-15508.468,-14883.463,-11231.723,-13924.229,-15524.276,-15304.309,-15529.920,-14145.259,-0.107,0.744,-0.541,-0.031,2.106,-1.404,80.000,455.000,1.000
-15442.740,-14821.392,-11212.789,-13882.329,-15458.932,-15241.317,-15464.385,-14086.858,-0.107,0.744,-0.541,-0.092,2.106,-1.465,80.000,456.000,1.000
-15374.057,-14757.621,-11191.758,-13837.623,-15389.838,-15176.801,-15395.770,-14025.889,-0.108,0.743,-0.541,0.000,2.167,-1.587,80.000,457.000,1.000
-15302.831,-14692.064,-11168.405,-13791.480,-15317.307,-15111.067,-15324.604,-13962.985,-0.109,0.744,-0.541,0.031,2.136,-1.587,80.000,458.000,1.000
-15229.549,-14624.640,-11142.746,-13745.086,-15242.328,-15044.266,-15251.852,-13899.271,-0.108,0.743,-0.540,0.031,2.167,-1.709,80.000,459.000,1.000
-15154.325,-14555.112,-11114.871,-13698.570,-15165.845,-14976.037,-15178.201,-13835.517,-0.110,0.742,-0.541,0.061,2.197,-1.709,80.000,460.000,1.000
-15076.914,-14483.024,-11084.702,-13650.472,-15088.042,-14905.436,-15103.528,-13771.406,-0.110,0.740,-0.540,0.092,2.228,-1.648,80.000,461.000,1.000
-14997.144,-14408.078,-11052.285,-13599.088,-15008.641,-14831.620,-15027.299,-13705.983,-0.112,0.741,-0.537,0.092,2.228,-1.678,80.000,462.000,1.000
-14915.116,-14330.550,-11018.178,-13544.396,-14927.682,-14754.654,-14949.313,-13638.761,-0.112,0.742,-0.539,0.183,2.045,-1.648,80.000,463.000,1.000
-14830.909,-14251.040,-10982.979,-13487.770,-14845.436,-14675.394,-14869.656,-13569.824,-0.114,0.740,-0.541,0.183,2.045,-1.617,80.000,464.000,1.000
-14744.394,-14169.894,-10946.534,-13429.951,-14761.684,-14594.665,-14788.124,-13498.940,-0.113,0.742,-0.539,0.275,1.923,-1.526,80.000,465.000,1.000
-14655.485,-14086.914,-10907.922,-13370.043,-14675.614,-14512.727,-14704.034,-13425.136,-0.115,0.742,-0.539,0.366,1.923,-1.465,80.000,466.000,1.000
-14564.310,-14001.497,-10866.165,-13306.440,-14586.495,-14429.329,-14616.602,-13347.330,-0.115,0.742,-0.538,0.366,1.770,-1.465,80.000,467.000,1.000
-14471.113,-13913.139,-10820.980,-13238.543,-14494.303,-14344.080,-14525.447,-13265.215,-0.113,0.742,-0.538,0.427,1.740,-1.343,80.000,468.000,1.000
-14376.133,-13821.974,-10773.119,-13167.660,-14399.637,-14256.634,-14430.698,-13179.434,-0.115,0.742,-0.541,0.610,1.648,-1.312,80.000,469.000,1.000
-14279.678,-13728.829,-10724.033,-13096.128,-14303.127,-14166.621,-14332.660,-13090.935,-0.115,0.742,-0.541,0.824,1.556,-1.129,80.000,470.000,1.000
-14182.177,-13634.824,-10675.066,-13025.449,-14204.998,-14073.640,-14231.580,-13000.344,-0.116,0.741,-0.536,0.793,1.556,-1.007,80.000,471.000,1.000
-14083.952,-13540.857,-10626.846,-12955.447,-14105.160,-13977.579,-14127.807,-12907.920,-0.116,0.743,-0.537,0.824,1.434,-1.007,80.000,472.000,1.000
-13985.050,-13447.276,-10579.249,-12885.009,-14003.542,-13878.892,-14021.959,-12813.768,-0.116,0.743,-0.538,0.885,1.312,-0.916,80.000,473.000,1.000
-13885.436,-13353.836,-10531.619,-12813.026,-13900.337,-13778.489,-13914.809,-12717.937,-0.118,0.744,-0.539,1.068,1.160,-0.854,80.000,474.000,1.000
-13785.196,-13259.987,-10483.190,-12738.894,-13796.175,-13677.484,-13807.197,-12620.659,-0.116,0.744,-0.540,1.190,1.221,-0.671,80.000,475.000,1.000
-13684.441,-13165.215,-10433.569,-12662.843,-13692.084,-13576.841,-13700.048,-12522.657,-0.115,0.743,-0.540,1.190,1.160,-0.641,80.000,476.000,1.000
-13583.006,-13068.980,-10382.724,-12585.588,-13588.855,-13476.784,-13594.094,-12424.933,-0.116,0.743,-0.542,1.190,1.099,-0.610,80.000,477.000,1.000
-13480.378,-12970.528,-10330.560,-12507.491,-13486.282,-13376.492,-13489.396,-12328.115,-0.115,0.745,-0.541,1.312,1.007,-0.610,80.000,478.000,1.000
-13376.102,-12869.269,-10276.864,-12428.583,-13383.230,-13274.638,-13385.284,-12232.150,-0.114,0.747,-0.541,1.282,0.977,-0.458,80.000,479.000,1.000
-13270.062,-12765.367,-10221.448,-12349.048,-13278.386,-13170.333,-13280.732,-12136.532,-0.114,0.749,-0.537,1.373,0.946,-0.366,80.000,480.000,1.000
-13162.237,-12659.665,-10164.121,-12269.046,-13170.905,-13063.587,-13174.852,-12040.695,-0.114,0.748,-0.539,1.373,0.854,-0.275,80.000,481.000,1.000
-13052.594,-12553.103,-10104.805,-12188.306,-13060.768,-12955.188,-13067.290,-11944.334,-0.114,0.750,-0.541,1.373,0.824,-0.214,80.000,482.000,1.000
-12941.359,-12446.337,-10043.797,-12106.122,-12948.810,-12846.297,-12958.354,-11847.503,-0.113,0.748,-0.543,1.556,0.854,-0.183,80.000,483.000,1.000
-12828.998,-12339.659,-9981.680,-12021.669,-12836.180,-12737.854,-12848.611,-11750.355,-0.111,0.747,-0.541,1.465,0.793,-0.122,80.000,484.000,1.000
-12715.760,-12232.952,-9918.875,-11934.440,-12723.504,-12630.013,-12738.272,-11652.785,-0.110,0.749,-0.542,1.434,0.641,-0.122,80.000,485.000,1.000
-12601.445,-12125.719,-9855.375,-11844.546,-12610.526,-12522.096,-12627.004,-11554.379,-0.112,0.748,-0.538,1.373,0.671,-0.061,80.000,486.000,1.000
-12485.701,-12017.354,-9790.925,-11752.719,-12496.519,-12413.156,-12514.363,-11454.722,-0.113,0.749,-0.541,1.404,0.702,0.031,80.000,487.000,1.000
-12368.392,-11907.544,-9725.378,-11660.041,-12380.979,-12302.680,-12400.252,-11353.682,-0.114,0.750,-0.541,1.343,0.702,0.092,80.000,488.000,1.000
-12249.642,-11796.354,-9658.815,-11567.429,-12263.896,-12190.833,-12284.888,-11251.302,-0.113,0.749,-0.540,1.312,0.671,0.000,80.000,489.000,1.000
-12129.554,-11683.859,-9591.266,-11475.029,-12145.474,-12078.157,-12168.443,-11147.449,-0.113,0.748,-0.540,1.312,0.671,0.061,80.000,490.000,1.000
-12007.974,-11569.835,-9522.428,-11382.033,-12025.791,-11965.055,-12050.787,-11041.693,-0.111,0.750,-0.539,1.251,0.702,0.061,80.000,491.000,1.000
-11884.607,-11453.883,-9451.775,-11287.131,-11904.678,-11851.392,-11931.451,-10933.445,-0.112,0.749,-0.541,1.251,0.702,0.000,80.000,492.000,1.000
-11759.260,-11335.758,-9378.947,-11189.187,-11781.667,-11736.370,-11809.716,-10822.074,-0.109,0.749,-0.537,1.160,0.641,0.092,80.000,493.000,1.000
-11632.072,-11215.519,-9304.057,-11087.830,-11656.140,-11618.818,-11684.876,-10707.077,-0.110,0.749,-0.537,1.129,0.641,0.061,80.000,494.000,1.000
-11503.601,-11093.423,-9227.605,-10983.629,-11527.697,-11497.763,-11556.602,-10588.348,-0.110,0.748,-0.538,1.129,0.732,-0.031,80.000,495.000,1.000
-11374.532,-10969.659,-9150.017,-10877.560,-11396.397,-11372.814,-11425.058,-10466.312,-0.110,0.748,-0.539,1.038,0.793,-0.031,80.000,496.000,1.000
-11245.340,-10844.390,-9071.467,-10770.525,-11262.791,-11244.231,-11290.802,-10341.848,-0.112,0.748,-0.538,0.946,0.793,0.061,80.000,497.000,1.000
-11116.392,-10718.087,-8992.252,-10663.253,-11127.911,-11112.866,-11154.672,-10216.168,-0.110,0.747,-0.537,0.916,0.732,-0.061,80.000,498.000,1.000
-10988.174,-10591.700,-8913.123,-10556.302,-10993.170,-10980.034,-11017.680,-10090.601,-0.109,0.747,-0.537,0.946,0.763,-0.153,80.000,499.000,1.000
-10861.217,-10466.466,-8835.140,-10450.435,-10860.090,-10847.331,-10880.957,-9966.417,-0.110,0.746,-0.538,0.946,0.885,-0.153,80.000,500.000,1.000
-10735.670,-10343.415,-8759.116,-10346.811,-10729.883,-10716.372,-10745.692,-9844.720,-0.110,0.744,-0.537,0.916,0.946,-0.214,80.000,501.000,1.000
-10610.935,-10222.777,-8685.010,-10245.920,-10602.899,-10588.306,-10612.799,-9726.102,-0.109,0.744,-0.538,0.916,0.946,-0.275,80.000,502.000,1.000
-10485.947,-10103.823,-8611.831,-10146.521,-10478.404,-10463.401,-10482.497,-9610.218,-0.109,0.745,-0.541,0.916,0.977,-0.214,80.000,503.000,1.000
-10359.903,-9985.275,-8538.216,-10046.568,-10355.060,-10341.082,-10354.404,-9496.019,-0.111,0.747,-0.539,0.946,1.038,-0.244,80.000,504.000,1.000
-10232.402,-9865.738,-8462.980,-9944.924,-10231.607,-10220.265,-10227.986,-9382.539,-0.111,0.746,-0.539,0.977,1.129,-0.183,80.000,505.000,1.000
-10103.103,-9744.041,-8385.312,-9841.487,-10107.123,-10099.647,-10102.696,-9269.258,-0.111,0.744,-0.542,1.038,1.160,-0.214,80.000,506.000,1.000
-9971.894,-9619.765,-8305.022,-9736.314,-9981.128,-9978.090,-9977.981,-9156.024,-0.109,0.746,-0.541,1.068,1.221,-0.122,80.000,507.000,1.000
-9839.289,-9493.505,-8222.700,-9629.307,-9853.746,-9855.024,-9853.440,-9042.963,-0.109,0.744,-0.539,1.099,1.343,-0.275,80.000,508.000,1.000
-9706.228,-9366.403,-8139.399,-9520.659,-9725.538,-9730.545,-9728.884,-8930.337,-0.111,0.742,-0.540,1.190,1.312,-0.214,80.000,509.000,1.000
-9573.459,-9239.340,-8056.041,-9411.129,-9596.944,-9605.092,-9604.163,-8818.196,-0.112,0.743,-0.540,1.221,1.251,-0.122,80.000,510.000,1.000
-9440.933,-9112.380,-7972.783,-9301.281,-9467.784,-9478.978,-9478.986,-8706.058,-0.112,0.743,-0.539,1.282,1.251,-0.061,80.000,511.000,1.000
-9307.644,-8984.845,-7888.824,-9190.599,-9337.410,-9352.227,-9353.057,-8593.064,-0.111,0.742,-0.535,1.282,1.373,-0.061,80.000,512.000,1.000
-9172.300,-8855.971,-7802.990,-9077.939,-9205.390,-9224.816,-9226.394,-8478.601,-0.112,0.743,-0.538,1.373,1.343,-0.061,80.000,513.000,1.000
-9034.422,-8725.597,-7714.710,-8962.920,-9071.970,-9096.891,-9099.291,-8362.658,-0.110,0.745,-0.539,1.434,1.404,0.061,80.000,514.000,1.000
-8894.859,-8594.310,-7624.580,-8846.674,-8937.886,-8968.701,-8971.826,-8245.513,-0.112,0.746,-0.539,1.404,1.373,0.061,80.000,515.000,1.000
-8755.250,-8462.958,-7534.006,-8730.934,-8803.690,-8840.350,-8843.244,-8126.936,-0.113,0.744,-0.540,1.434,1.465,0.122,80.000,516.000,1.000
-8616.983,-8332.050,-7444.203,-8616.421,-8669.077,-8711.481,-8711.819,-8005.657,-0.113,0.744,-0.541,1.495,1.434,0.031,80.000,517.000,1.000
-8480.454,-8201.497,-7355.403,-8502.476,-8532.877,-8581.148,-8575.568,-7879.891,-0.112,0.745,-0.542,1.617,1.434,0.122,80.000,518.000,1.000
-8344.991,-8070.708,-7266.849,-8387.853,-8393.780,-8448.072,-8433.356,-7748.560,-0.112,0.745,-0.538,1.556,1.465,0.214,80.000,519.000,1.000
-8209.432,-7938.957,-7177.419,-8271.414,-8251.158,-8311.269,-8285.507,-7612.080,-0.112,0.745,-0.538,1.556,1.434,0.275,80.000,520.000,1.000
-8072.906,-7805.908,-7086.355,-8152.596,-8105.470,-8170.725,-8133.579,-7472.222,-0.111,0.745,-0.538,1.678,1.404,0.275,80.000,521.000,1.000
-7935.436,-7672.044,-6993.882,-8031.830,-7958.241,-8027.724,-7979.752,-7331.440,-0.110,0.746,-0.540,1.648,1.495,0.214,80.000,522.000,1.000
-7798.245,-7538.743,-6901.573,-7910.870,-7811.840,-7884.591,-7826.384,-7192.258,-0.111,0.746,-0.543,1.617,1.617,0.336,80.000,523.000,1.000
-7663.185,-7407.700,-6811.667,-7792.301,-7668.769,-7743.725,-7675.649,-7056.804,-0.111,0.746,-0.541,1.648,1.556,0.275,80.000,524.000,1.000
-7531.194,-7279.794,-6725.330,-7677.867,-7530.442,-7606.397,-7529.046,-6926.338,-0.111,0.746,-0.542,1.648,1.526,0.244,80.000,525.000,1.000
-7401.210,-7154.381,-6641.534,-7567.109,-7396.430,-7472.295,-7387.084,-6800.972,-0.111,0.746,-0.543,1.648,1.556,0.244,80.000,526.000,1.000
-7270.682,-7029.619,-6557.666,-7457.576,-7264.800,-7340.028,-7249.314,-6679.792,-0.110,0.746,-0.541,1.648,1.556,0.244,80.000,527.000,1.000
-7137.232,-6903.457,-6471.154,-7346.369,-7133.188,-7208.002,-7114.621,-6561.220,-0.109,0.747,-0.542,1.526,1.526,0.214,80.000,528.000,1.000
-7000.172,-6774.656,-6380.912,-7231.997,-7000.043,-7075.287,-6981.826,-6443.671,-0.111,0.748,-0.546,1.617,1.556,0.183,80.000,529.000,1.000
-6860.714,-6643.340,-6287.703,-7115.095,-6865.370,-6942.146,-6850.328,-6326.329,-0.110,0.747,-0.543,1.556,1.465,0.275,80.000,530.000,1.000
-6720.691,-6510.660,-6193.193,-6997.306,-6730.331,-6809.760,-6720.130,-6209.260,-0.109,0.747,-0.543,1.587,1.495,0.183,80.000,531.000,1.000
-6581.269,-6377.939,-6098.724,-6879.781,-6596.176,-6679.296,-6591.320,-6092.763,-0.110,0.745,-0.543,1.556,1.465,0.092,80.000,532.000,1.000
-6442.751,-6246.021,-6004.855,-6762.747,-6463.525,-6551.143,-6463.710,-5976.850,-0.110,0.746,-0.542,1.495,1.556,0.092,80.000,533.000,1.000
-6304.896,-6115.021,-5911.428,-6645.591,-6332.104,-6424.707,-6336.737,-5861.113,-0.110,0.746,-0.541,1.495,1.587,0.183,80.000,534.000,1.000
-6167.212,-5984.475,-5817.781,-6527.014,-6200.831,-6298.664,-6209.538,-5744.745,-0.109,0.748,-0.543,1.465,1.556,0.092,80.000,535.000,1.000
-6029.426,-5853.835,-5723.324,-6406.090,-6068.523,-6171.622,-6081.387,-5626.904,-0.109,0.749,-0.543,1.373,1.526,-0.092,80.000,536.000,1.000
-5891.803,-5722.820,-5628.092,-6283.556,-5934.797,-6042.734,-5952.159,-5507.313,-0.109,0.748,-0.543,1.312,1.465,-0.031,80.000,537.000,1.000
-5754.626,-5591.266,-5532.458,-6161.174,-5800.062,-5911.766,-5822.192,-5386.308,-0.111,0.748,-0.542,1.282,1.587,0.031,80.000,538.000,1.000
-5617.510,-5458.906,-5436.433,-6039.664,-5664.723,-5778.868,-5691.715,-5264.283,-0.110,0.749,-0.542,1.251,1.587,0.092,80.000,539.000,1.000
-5479.828,-5325.725,-5339.826,-5918.433,-5528.875,-5644.615,-5560.589,-5141.460,-0.110,0.749,-0.540,1.221,1.678,-0.061,80.000,540.000,1.000
-5341.795,-5192.465,-5243.016,-5797.348,-5392.683,-5510.029,-5428.487,-5018.123,-0.109,0.750,-0.542,1.068,1.587,-0.153,80.000,541.000,1.000
-5204.564,-5060.383,-5147.041,-5677.403,-5256.489,-5376.077,-5295.111,-4894.694,-0.110,0.748,-0.539,1.038,1.648,-0.153,80.000,542.000,1.000
-5069.144,-4930.326,-5052.745,-5559.331,-5120.388,-5242.956,-5160.200,-4771.332,-0.109,0.749,-0.535,0.977,1.526,-0.214,80.000,543.000,1.000
-4935.538,-4802.056,-4959.974,-5442.405,-4983.874,-5109.871,-5023.414,-4647.480,-0.110,0.748,-0.537,0.946,1.495,-0.244,80.000,544.000,1.000
-4803.065,-4674.530,-4867.699,-5325.038,-4846.105,-4975.531,-4884.370,-4521.967,-0.107,0.746,-0.539,0.824,1.587,-0.122,80.000,545.000,1.000
-4671.206,-4546.833,-4774.930,-5206.315,-4706.675,-4839.088,-4742.917,-4393.811,-0.109,0.746,-0.542,0.793,1.495,-0.214,80.000,546.000,1.000
-4539.890,-4418.850,-4681.459,-5086.810,-4566.285,-4700.877,-4599.476,-4263.065,-0.110,0.746,-0.540,0.763,1.465,-0.183,80.000,547.000,1.000
-4409.273,-4291.201,-4587.913,-4968.201,-4426.708,-4562.387,-4455.096,-4131.021,-0.111,0.747,-0.539,0.732,1.465,-0.214,80.000,548.000,1.000
-4279.695,-4164.802,-4495.398,-4852.126,-4290.056,-4425.514,-4311.178,-3999.652,-0.110,0.746,-0.539,0.702,1.404,-0.214,80.000,549.000,1.000
-4151.653,-4040.423,-4405.000,-4739.164,-4157.750,-4291.696,-4169.063,-3870.791,-0.110,0.745,-0.537,0.702,1.312,-0.244,80.000,550.000,1.000
-4025.323,-3918.280,-4317.101,-4628.624,-4029.732,-4161.405,-4029.771,-3745.515,-0.109,0.746,-0.542,0.610,1.404,-0.214,80.000,551.000,1.000
-3900.146,-3797.867,-4230.918,-4518.802,-3904.468,-4034.175,-3893.869,-3623.958,-0.109,0.747,-0.540,0.580,1.312,-0.275,80.000,552.000,1.000
-3775.270,-3678.323,-4144.899,-4407.613,-3779.881,-3909.096,-3761.501,-3505.545,-0.109,0.747,-0.540,0.580,1.312,-0.275,80.000,553.000,1.000
-3650.227,-3558.894,-4057.669,-4294.041,-3654.589,-3785.309,-3632.511,-3389.546,-0.110,0.747,-0.543,0.519,1.312,-0.183,80.000,554.000,1.000
-3524.834,-3439.020,-3968.607,-4179.127,-3528.514,-3662.251,-3506.590,-3275.514,-0.109,0.746,-0.539,0.580,1.221,-0.214,80.000,555.000,1.000
-3398.714,-3318.369,-3877.759,-4064.895,-3402.616,-3539.831,-3383.415,-3163.321,-0.111,0.747,-0.537,0.488,1.221,-0.122,80.000,556.000,1.000
-3271.456,-3197.045,-3785.598,-3952.420,-3278.164,-3418.435,-3262.652,-3052.850,-0.110,0.747,-0.538,0.519,1.282,-0.061,80.000,557.000,1.000
-3143.280,-3075.601,-3692.956,-3841.531,-3155.945,-3298.438,-3143.770,-2943.703,-0.110,0.745,-0.540,0.641,1.099,-0.061,80.000,558.000,1.000
-3015.093,-2954.614,-3600.765,-3731.695,-3035.649,-3179.566,-3025.986,-2835.260,-0.110,0.744,-0.540,0.793,1.099,-0.092,80.000,559.000,1.000
-2887.567,-2834.002,-3509.251,-3621.836,-2915.701,-3060.705,-2908.419,-2726.751,-0.111,0.745,-0.540,0.732,1.129,-0.183,80.000,560.000,1.000
-2760.545,-2712.825,-3417.513,-3510.025,-2793.882,-2940.365,-2790.334,-2617.348,-0.111,0.744,-0.542,0.824,1.068,-0.122,80.000,561.000,1.000
-2633.571,-2590.007,-3324.330,-3394.993,-2668.688,-2817.542,-2671.503,-2506.684,-0.110,0.744,-0.538,0.854,1.099,-0.061,80.000,562.000,1.000
-2506.381,-2465.259,-3229.142,-3277.367,-2540.306,-2692.295,-2552.286,-2395.235,-0.111,0.742,-0.540,0.977,1.251,-0.092,80.000,563.000,1.000
-2378.719,-2339.299,-3132.159,-3158.655,-2410.256,-2565.657,-2433.097,-2283.796,-0.111,0.742,-0.540,1.068,1.129,-0.122,80.000,564.000,1.000
-2250.413,-2213.490,-3034.188,-3040.016,-2280.368,-2439.127,-2313.786,-2172.629,-0.109,0.741,-0.541,1.099,1.007,-0.122,80.000,565.000,1.000
-2122.223,-2089.547,-2936.829,-2922.649,-2152.237,-2314.248,-2193.677,-2061.310,-0.109,0.736,-0.539,1.251,1.068,-0.214,80.000,566.000,1.000
-1996.331,-1969.318,-2842.385,-2808.458,-2027.099,-2192.204,-2072.126,-1949.277,-0.109,0.738,-0.538,1.434,1.129,-0.244,80.000,567.000,1.000
-1875.156,-1854.071,-2752.747,-2699.021,-1905.350,-2073.272,-1948.834,-1836.262,-0.109,0.739,-0.542,1.587,1.129,-0.214,80.000,568.000,1.000
-1759.456,-1743.635,-2668.040,-2593.823,-1786.067,-1956.543,-1823.775,-1722.258,-0.109,0.741,-0.539,1.709,1.038,-0.305,80.000,569.000,1.000
-1647.834,-1636.375,-2586.504,-2490.413,-1667.517,-1840.468,-1697.154,-1607.374,-0.107,0.739,-0.538,1.892,1.068,-0.366,80.000,570.000,1.000
-1537.826,-1530.180,-2505.690,-2386.457,-1548.455,-1723.936,-1569.558,-1491.960,-0.108,0.741,-0.537,2.014,1.160,-0.275,80.000,571.000,1.000
-1427.196,-1423.515,-2423.829,-2281.306,-1429.030,-1606.965,-1442.040,-1376.816,-0.108,0.741,-0.542,2.075,1.160,-0.244,80.000,572.000,1.000
-1314.703,-1315.872,-2340.455,-2175.865,-1310.558,-1490.455,-1315.927,-1263.112,-0.108,0.739,-0.542,2.167,1.160,-0.244,80.000,573.000,1.000
-1200.475,-1207.629,-2256.180,-2071.502,-1194.483,-1375.354,-1192.374,-1151.898,-0.108,0.741,-0.539,2.350,1.251,-0.244,80.000,574.000,1.000
-1085.903,-1099.643,-2172.061,-1968.960,-1081.401,-1262.024,-1071.983,-1043.564,-0.109,0.740,-0.539,2.380,1.251,-0.244,80.000,575.000,1.000
-972.739,-992.678,-2088.932,-1867.820,-970.826,-1150.174,-954.815,-937.769,-0.109,0.744,-0.541,2.350,1.190,-0.244,80.000,576.000,1.000
-861.867,-886.791,-2006.964,-1766.996,-861.649,-1039.155,-840.719,-833.960,-0.108,0.745,-0.542,2.441,1.221,-0.183,80.000,577.000,1.000
-752.767,-781.092,-1925.482,-1665.491,-752.657,-928.239,-729.491,-731.808,-0.109,0.745,-0.542,2.380,1.251,-0.214,80.000,578.000,1.000
-643.841,-674.148,-1843.018,-1562.371,-642.755,-816.801,-620.694,-631.066,-0.109,0.746,-0.542,2.472,1.251,-0.305,80.000,579.000,1.000
-533.437,-565.019,-1758.104,-1457.226,-531.340,-704.695,-513.685,-531.505,-0.110,0.747,-0.544,2.502,1.312,-0.183,80.000,580.000,1.000
-421.036,-454.166,-1670.516,-1351.113,-418.798,-592.594,-408.031,-433.208,-0.111,0.748,-0.544,2.411,1.251,-0.275,80.000,581.000,1.000
-307.494,-343.237,-1581.447,-1245.858,-306.330,-481.637,-303.637,-336.518,-0.110,0.749,-0.542,2.380,1.190,-0.305,80.000,582.000,1.000
-194.371,-234.005,-1492.593,-1142.685,-195.197,-372.618,-200.473,-241.710,-0.111,0.751,-0.544,2.258,1.221,-0.305,80.000,583.000,1.000
-83.283,-127.499,-1405.425,-1042.063,-86.165,-265.580,-98.346,-148.836,-0.110,0.748,-0.542,2.106,1.190,-0.244,80.000,584.000,1.000
24.678,-23.719,-1320.797,-943.835,20.742,-159.992,3.070,-57.602,-0.110,0.748,-0.541,2.014,1.190,-0.244,80.000,585.000,1.000
129.519,78.228,-1238.655,-846.969,126.156,-55.220,104.065,32.683,-0.111,0.748,-0.541,2.045,1.129,-0.275,80.000,586.000,1.000
232.371,179.575,-1158.142,-749.788,230.924,49.090,204.769,122.917,-0.107,0.748,-0.540,1.953,1.221,-0.153,80.000,587.000,1.000
334.785,281.068,-1078.211,-650.892,335.568,152.780,305.166,213.896,-0.108,0.749,-0.544,1.953,1.190,-0.153,80.000,588.000,1.000
437.760,382.355,-998.353,-550.437,439.915,255.113,405.172,305.931,-0.110,0.748,-0.543,1.862,1.251,-0.092,80.000,589.000,1.000
541.178,482.151,-918.824,-450.458,543.194,355.094,504.722,398.600,-0.107,0.748,-0.543,1.678,1.312,-0.092,80.000,590.000,1.000
643.988,579.152,-840.185,-353.225,644.545,452.147,603.861,490.996,-0.107,0.747,-0.542,1.678,1.373,-0.031,80.000,591.000,1.000
744.828,672.832,-762.893,-259.659,743.364,546.510,702.699,582.331,-0.108,0.746,-0.538,1.617,1.404,0.000,80.000,592.000,1.000
842.600,763.520,-687.399,-169.860,839.275,639.001,801.346,672.288,-0.110,0.745,-0.541,1.526,1.282,0.122,80.000,593.000,1.000
936.851,852.048,-614.152,-83.860,932.235,730.635,900.006,761.099,-0.109,0.745,-0.540,1.434,1.404,0.214,80.000,594.000,1.000
1027.884,939.445,-543.160,-0.812,1022.916,822.399,999.116,849.552,-0.109,0.745,-0.543,1.404,1.495,0.244,80.000,595.000,1.000
1116.536,1026.688,-473.737,81.393,1112.780,915.016,1099.126,938.705,-0.107,0.746,-0.540,1.373,1.434,0.183,80.000,596.000,1.000
1203.992,1114.507,-404.735,164.923,1203.528,1008.765,1200.110,1029.266,-0.108,0.744,-0.540,1.282,1.526,0.153,80.000,597.000,1.000
1291.825,1203.334,-334.821,250.964,1296.294,1103.481,1301.585,1121.165,-0.109,0.747,-0.541,1.312,1.526,0.214,80.000,598.000,1.000
1381.650,1293.220,-262.836,339.681,1391.029,1198.521,1402.545,1213.448,-0.108,0.747,-0.539,1.190,1.495,0.214,80.000,599.000,1.000
1474.160,1383.625,-188.406,430.472,1486.477,1292.766,1501.592,1304.506,-0.111,0.744,-0.540,1.099,1.678,0.031,80.000,600.000,1.000
1568.446,1473.419,-112.344,522.069,1580.811,1385.045,1597.353,1392.679,-0.109,0.744,-0.540,1.068,1.617,0.031,80.000,601.000,1.000
1662.271,1561.278,-36.459,612.241,1672.397,1474.702,1688.968,1476.811,-0.109,0.745,-0.539,0.977,1.556,-0.031,80.000,602.000,1.000
1753.230,1646.421,37.279,698.242,1760.326,1561.857,1776.368,1556.542,-0.111,0.745,-0.540,0.946,1.495,-0.031,80.000,603.000,1.000
1840.287,1729.243,107.974,778.941,1844.828,1647.330,1860.324,1632.608,-0.109,0.747,-0.541,0.977,1.404,-0.092,80.000,604.000,1.000
1924.610,1811.140,176.495,856.256,1927.223,1732.219,1942.128,1706.640,-0.108,0.746,-0.543,0.854,1.434,-0.214,80.000,605.000,1.000
2008.936,1893.648,244.981,933.993,2009.265,1817.333,2022.953,1780.313,-0.110,0.746,-0.541,0.793,1.495,-0.244,80.000,606.000,1.000
2095.748,1977.611,315.530,1015.342,2092.327,1902.841,2103.310,1854.481,-0.108,0.747,-0.543,0.671,1.343,-0.305,80.000,607.000,1.000
2185.562,2062.737,388.889,1100.868,2176.803,1988.233,2182.896,1928.764,-0.108,0.748,-0.543,0.549,1.343,-0.336,80.000,608.000,1.000
2276.731,2147.778,464.117,1188.366,2262.102,2072.705,2261.103,2001.959,-0.109,0.749,-0.546,0.519,1.312,-0.366,80.000,609.000,1.000
2366.552,2231.128,539.252,1274.620,2347.163,2155.677,2337.783,2073.084,-0.107,0.747,-0.542,0.397,1.221,-0.336,80.000,610.000,1.000
2452.403,2311.360,612.117,1357.348,2430.890,2236.876,2413.357,2142.069,-0.107,0.745,-0.543,0.366,1.190,-0.305,80.000,611.000,1.000
2532.642,2387.738,681.037,1435.970,2512.427,2316.158,2488.353,2209.700,-0.107,0.748,-0.542,0.214,1.343,-0.336,80.000,612.000,1.000
2607.176,2460.536,745.461,1511.161,2591.374,2393.434,2563.033,2277.126,-0.106,0.748,-0.540,0.305,1.343,-0.366,80.000,613.000,1.000
2677.285,2530.627,806.001,1583.750,2667.671,2468.547,2637.241,2345.143,-0.105,0.743,-0.538,0.275,1.312,-0.336,80.000,614.000,1.000
2744.932,2598.939,863.982,1654.095,2741.481,2541.326,2710.649,2413.889,-0.108,0.745,-0.538,0.305,1.251,-0.366,80.000,615.000,1.000
2812.197,2666.444,921.126,1722.664,2813.457,2611.966,2783.291,2483.304,-0.108,0.745,-0.541,0.244,1.282,-0.336,80.000,616.000,1.000
2880.781,2734.005,979.170,1790.766,2884.723,2681.112,2855.694,2553.494,-0.107,0.746,-0.541,0.214,1.343,-0.305,80.000,617.000,1.000
2951.516,2801.862,1039.221,1860.192,2956.236,2749.487,2928.430,2624.493,-0.106,0.745,-0.542,0.275,1.343,-0.275,80.000,618.000,1.000
3024.219,2869.629,1101.385,1932.137,3028.302,2817.707,3001.841,2696.095,-0.108,0.745,-0.540,0.183,1.343,-0.244,80.000,619.000,1.000
3097.800,2936.874,1164.871,2006.311,3100.675,2886.405,3076.159,2767.981,-0.109,0.745,-0.537,0.122,1.251,-0.305,80.000,620.000,1.000
3170.385,3003.374,1228.178,2080.757,3172.828,2956.181,3151.543,2839.739,-0.110,0.746,-0.538,0.153,1.312,-0.305,80.000,621.000,1.000
3239.754,3068.815,1289.321,2152.604,3243.992,3027.192,3227.778,2910.739,-0.111,0.746,-0.541,0.183,1.282,-0.183,80.000,622.000,1.000
3304.469,3132.712,1346.530,2219.591,3313.241,3098.872,3304.011,2980.089,-0.112,0.746,-0.543,0.183,1.221,-0.092,80.000,623.000,1.000
3365.094,3194.949,1399.407,2281.631,3379.923,3170.244,3378.996,3046.916,-0.112,0.745,-0.543,0.244,1.221,-0.092,80.000,624.000,1.000
3424.017,3256.048,1449.379,2340.910,3444.017,3240.385,3451.613,3110.700,-0.110,0.745,-0.538,0.244,1.129,-0.031,80.000,625.000,1.000
3483.659,3316.557,1498.726,2399.944,3505.866,3308.448,3521.029,3171.225,-0.110,0.745,-0.540,0.275,1.099,-0.153,80.000,626.000,1.000
3545.072,3376.537,1549.316,2459.720,3565.751,3373.600,3586.631,3228.442,-0.110,0.744,-0.541,0.305,1.038,-0.031,80.000,627.000,1.000
3608.278,3436.015,1602.293,2519.983,3624.077,3435.525,3648.254,3282.657,-0.108,0.742,-0.543,0.427,0.977,-0.092,80.000,628.000,1.000
3673.149,3495.545,1658.253,2580.787,3681.767,3494.911,3706.490,3334.789,-0.109,0.743,-0.542,0.427,0.885,-0.061,80.000,629.000,1.000
3739.451,3555.854,1717.032,2643.018,3739.936,3553.046,3762.433,3386.072,-0.110,0.742,-0.540,0.519,0.946,0.000,80.000,630.000,1.000
3806.352,3617.005,1777.356,2707.141,3798.947,3610.797,3816.909,3437.171,-0.110,0.745,-0.541,0.488,0.916,0.000,80.000,631.000,1.000
3872.221,3678.127,1837.066,2771.859,3857.953,3668.014,3869.963,3487.550,-0.108,0.743,-0.538,0.519,0.977,0.000,80.000,632.000,1.000
3935.013,3737.846,1893.968,2834.760,3915.479,3723.883,3921.116,3535.922,-0.108,0.744,-0.538,0.610,0.824,-0.122,80.000,633.000,1.000
3993.071,3794.757,1946.613,2893.991,3970.299,3777.587,3969.882,3581.250,-0.108,0.746,-0.542,0.702,0.885,-0.153,80.000,634.000,1.000
4045.917,3847.822,1994.568,2948.697,4021.790,3828.640,4015.954,3623.106,-0.107,0.744,-0.539,0.793,0.793,-0.214,80.000,635.000,1.000
4094.470,3896.950,2038.443,2998.655,4070.031,3877.051,4059.343,3661.616,-0.110,0.744,-0.537,0.946,0.763,-0.183,80.000,636.000,1.000
4140.581,3943.368,2079.919,3044.790,4116.025,3923.533,4100.746,3697.774,-0.108,0.744,-0.537,1.007,0.854,-0.153,80.000,637.000,1.000
4186.318,3989.093,2121.370,3089.625,4161.511,3969.350,4141.652,3733.615,-0.106,0.743,-0.539,0.977,0.916,-0.214,80.000,638.000,1.000
4233.232,4035.682,2164.721,3135.952,4208.025,4015.635,4183.764,3771.396,-0.106,0.742,-0.539,1.038,0.916,-0.092,80.000,639.000,1.000
4281.603,4083.212,2210.257,3184.879,4255.908,4062.717,4228.146,3812.398,-0.108,0.742,-0.538,1.129,1.038,-0.122,80.000,640.000,1.000
4330.248,4130.353,2256.551,3235.501,4304.297,4110.094,4274.846,3856.575,-0.107,0.744,-0.539,1.221,1.068,-0.214,80.000,641.000,1.000
4377.285,4175.285,2301.546,3285.981,4351.961,4156.956,4323.235,3903.092,-0.104,0.742,-0.543,1.282,1.007,-0.214,80.000,642.000,1.000
4421.365,4216.756,2343.814,3334.809,4398.150,4202.776,4372.573,3950.973,-0.105,0.742,-0.540,1.312,1.099,-0.122,80.000,643.000,1.000
4462.524,4254.923,2383.344,3381.945,4443.050,4247.783,4422.415,3999.517,-0.104,0.742,-0.540,1.343,1.160,-0.275,80.000,644.000,1.000
4501.898,4291.442,2421.416,3428.629,4487.591,4292.994,4472.613,4048.228,-0.106,0.742,-0.541,1.465,1.190,-0.153,80.000,645.000,1.000
4540.520,4328.343,2459.510,3475.445,4532.577,4339.480,4522.998,4096.352,-0.108,0.741,-0.540,1.587,1.251,-0.122,80.000,646.000,1.000
4578.555,4366.613,2498.284,3521.368,4577.925,4387.421,4573.105,4142.897,-0.109,0.741,-0.541,1.678,1.282,-0.275,80.000,647.000,1.000
4615.568,4405.764,2537.448,3564.863,4622.607,4435.716,4622.131,4187.081,-0.110,0.742,-0.542,1.770,1.251,-0.336,80.000,648.000,1.000
4651.185,4444.495,2576.322,3605.219,4665.202,4482.482,4669.087,4228.581,-0.110,0.743,-0.540,1.831,1.190,-0.336,80.000,649.000,1.000
4685.665,4481.671,2614.525,3643.370,4704.678,4526.027,4713.138,4267.665,-0.109,0.743,-0.539,1.831,1.251,-0.366,80.000,650.000,1.000
4720.012,4516.774,2652.182,3681.550,4740.782,4565.443,4753.798,4305.049,-0.111,0.743,-0.545,1.953,1.343,-0.336,80.000,651.000,1.000
4755.395,4549.863,2689.548,3721.488,4773.867,4600.614,4790.917,4341.319,-0.110,0.741,-0.544,1.892,1.282,-0.366,80.000,652.000,1.000
4792.371,4581.568,2726.713,3763.207,4804.704,4632.180,4824.760,4376.587,-0.109,0.743,-0.544,1.923,1.312,-0.458,80.000,653.000,1.000
4830.487,4612.941,2763.616,3805.576,4834.397,4661.414,4856.080,4410.697,-0.108,0.743,-0.543,2.014,1.312,-0.458,80.000,654.000,1.000
4868.436,4644.844,2800.075,3847.175,4864.061,4689.700,4885.798,4443.349,-0.108,0.745,-0.545,1.953,1.221,-0.519,80.000,655.000,1.000
4904.671,4677.350,2835.797,3886.573,4894.264,4717.909,4914.472,4473.937,-0.109,0.745,-0.545,2.014,1.343,-0.488,80.000,656.000,1.000
4938.116,4709.748,2870.454,3922.737,4924.803,4746.285,4942.111,4501.571,-0.108,0.748,-0.544,1.953,1.312,-0.366,80.000,657.000,1.000
4968.583,4741.104,2903.777,3955.661,4954.974,4774.726,4968.391,4525.567,-0.110,0.747,-0.543,1.892,1.404,-0.397,80.000,658.000,1.000
4996.719,4770.799,2935.663,3986.400,4984.013,4802.942,4992.913,4545.937,-0.109,0.747,-0.544,1.801,1.373,-0.397,80.000,659.000,1.000
5023.557,4798.690,2966.306,4016.331,5011.425,4830.485,5015.335,4563.386,-0.109,0.747,-0.544,1.740,1.373,-0.305,80.000,660.000,1.000
5049.935,4825.075,2996.163,4046.300,5037.126,4856.954,5035.568,4578.906,-0.110,0.746,-0.543,1.648,1.495,-0.244,80.000,661.000,1.000
5076.209,4850.559,3025.785,4076.340,5061.436,4882.230,5054.036,4593.513,-0.111,0.748,-0.545,1.587,1.465,-0.244,80.000,662.000,1.000
5102.362,4875.648,3055.598,4106.176,5084.890,4906.450,5071.661,4608.330,-0.110,0.747,-0.543,1.617,1.434,-0.183,80.000,663.000,1.000
5128.206,4900.277,3085.676,4135.835,5107.942,4929.743,5089.476,4624.611,-0.110,0.748,-0.541,1.434,1.465,-0.183,80.000,664.000,1.000
5153.403,4923.871,3115.648,4165.595,5130.764,4952.125,5108.214,4643.398,-0.110,0.750,-0.542,1.404,1.495,-0.122,80.000,665.000,1.000
5177.274,4945.826,3144.788,4195.278,5153.222,4973.668,5128.145,4664.902,-0.110,0.748,-0.542,1.251,1.434,-0.061,80.000,666.000,1.000
5198.907,4965.806,3172.233,4223.759,5174.953,4994.681,5149.147,4688.198,-0.111,0.747,-0.541,1.251,1.465,-0.061,80.000,667.000,1.000
5217.786,4983.770,3197.364,4249.624,5195.605,5015.642,5170.962,4711.761,-0.110,0.747,-0.541,1.068,1.434,-0.031,80.000,668.000,1.000
5234.312,5000.083,3220.278,4272.568,5215.177,5037.054,5193.457,4734.453,-0.110,0.748,-0.544,1.007,1.312,-0.061,80.000,669.000,1.000
5249.538,5015.599,3241.864,4293.812,5234.079,5059.324,5216.656,4755.980,-0.111,0.749,-0.542,0.885,1.282,0.000,80.000,670.000,1.000
5264.168,5031.096,3263.016,4314.740,5252.617,5082.384,5240.357,4776.415,-0.110,0.746,-0.543,0.763,1.251,0.061,80.000,671.000,1.000
5277.992,5046.490,3283.800,4335.538,5270.432,5105.330,5263.727,4795.538,-0.111,0.746,-0.544,0.610,1.221,0.031,80.000,672.000,1.000
5290.717,5061.166,3303.896,4355.764,5286.837,5126.903,5285.568,4812.922,-0.111,0.746,-0.547,0.549,1.160,0.031,80.000,673.000,1.000
5302.873,5074.987,3323.555,4375.352,5301.537,5146.326,5304.922,4828.282,-0.111,0.745,-0.544,0.336,1.129,0.031,80.000,674.000,1.000
5315.360,5088.429,3343.450,4394.427,5314.641,5163.468,5321.251,4841.369,-0.110,0.744,-0.542,0.366,1.160,0.031,80.000,675.000,1.000
5328.499,5101.944,3363.934,4412.932,5326.373,5178.554,5334.412,4851.997,-0.112,0.745,-0.543,0.397,1.099,0.031,80.000,676.000,1.000
5341.781,5115.506,3384.730,4430.758,5337.003,5191.924,5344.758,4860.440,-0.112,0.746,-0.544,0.336,1.068,0.031,80.000,677.000,1.000
5354.139,5128.489,3404.967,4447.552,5346.652,5203.703,5352.994,4867.338,-0.113,0.747,-0.544,0.305,1.068,0.000,80.000,678.000,1.000
5364.503,5139.930,3423.504,4462.461,5355.051,5213.616,5359.717,4873.092,-0.112,0.746,-0.547,0.214,1.007,0.000,80.000,679.000,1.000
5372.508,5149.159,3439.685,4474.952,5361.824,5221.305,5365.198,4877.695,-0.111,0.745,-0.542,0.092,1.007,0.061,80.000,680.000,1.000
5378.756,5156.144,3453.799,4485.770,5366.959,5226.726,5369.489,4881.035,-0.114,0.743,-0.541,0.214,1.068,0.092,80.000,681.000,1.000
5384.286,5161.331,3466.723,4496.445,5370.847,5230.201,5372.539,4883.089,-0.112,0.744,-0.541,0.092,1.038,0.122,80.000,682.000,1.000
5389.808,5165.394,3479.306,4507.954,5374.013,5232.296,5374.271,4883.935,-0.112,0.744,-0.541,0.061,0.946,0.122,80.000,683.000,1.000
5395.449,5169.071,3492.080,4520.241,5376.920,5233.754,5374.735,4883.847,-0.112,0.743,-0.540,0.153,1.007,0.061,80.000,684.000,1.000
5401.154,5173.014,3505.410,4532.804,5379.948,5235.359,5374.249,4883.377,-0.112,0.745,-0.541,0.031,0.946,0.183,80.000,685.000,1.000
5406.989,5177.627,3519.655,4545.332,5383.319,5237.606,5373.346,4883.178,-0.112,0.746,-0.542,0.092,0.854,0.153,80.000,686.000,1.000
5412.876,5182.912,3535.044,4557.996,5386.959,5240.456,5372.556,4883.717,-0.112,0.745,-0.543,0.000,0.885,0.092,80.000,687.000,1.000
5418.236,5188.365,3551.233,4570.923,5390.420,5243.442,5372.196,4885.131,-0.113,0.744,-0.541,0.000,0.977,0.153,80.000,688.000,1.000
5421.891,5192.956,3566.910,4582.808,5392.912,5245.921,5372.227,4887.122,-0.113,0.745,-0.538,0.092,0.946,0.275,80.000,689.000,1.000
5422.529,5195.617,3580.330,4591.094,5393.712,5247.421,5372.409,4889.181,-0.112,0.745,-0.540,0.031,0.885,0.275,80.000,690.000,1.000
5419.812,5196.126,3590.798,4594.603,5392.933,5248.093,5372.737,4891.168,-0.112,0.745,-0.542,0.061,0.885,0.275,80.000,691.000,1.000
5414.972,5195.221,3599.349,4595.331,5391.681,5248.800,5373.608,4893.546,-0.111,0.746,-0.542,0.000,0.671,0.305,80.000,692.000,1.000
5409.712,5193.476,3607.455,4596.719,5390.969,5250.337,5375.325,4896.734,-0.112,0.746,-0.542,-0.092,0.702,0.336,80.000,693.000,1.000
5404.511,5190.293,3615.240,4600.277,5390.400,5252.456,5377.415,4900.189,-0.112,0.746,-0.542,-0.092,0.732,0.366,80.000,694.000,1.000
5398.591,5184.568,3621.636,4604.803,5388.434,5254.051,5378.808,4902.504,-0.110,0.746,-0.543,-0.122,0.702,0.366,80.000,695.000,1.000
5391.285,5176.152,3625.990,4608.565,5383.957,5254.233,5378.691,4902.583,-0.108,0.744,-0.540,-0.092,0.702,0.397,80.000,696.000,1.000
5382.599,5166.023,3628.657,4610.701,5377.073,5252.746,5376.802,4900.256,-0.111,0.746,-0.541,-0.092,0.793,0.519,80.000,697.000,1.000
5372.794,5155.398,3630.404,4610.891,5368.618,5249.634,5373.047,4895.892,-0.111,0.744,-0.540,0.000,0.854,0.580,80.000,698.000,1.000
5362.233,5145.292,3632.014,4609.302,5359.510,5245.054,5367.320,4889.960,-0.111,0.745,-0.542,0.092,0.824,0.671,80.000,699.000,1.000
5351.458,5136.369,3634.140,4606.761,5350.352,5239.221,5359.611,4882.895,-0.110,0.744,-0.539,0.061,0.793,0.671,80.000,700.000,1.000
5340.940,5128.513,3636.891,4604.156,5341.152,5232.200,5350.049,4875.022,-0.109,0.744,-0.542,0.122,0.916,0.641,80.000,701.000,1.000
5330.947,5120.804,3639.782,4601.974,5331.433,5223.858,5338.829,4866.452,-0.107,0.744,-0.539,0.122,0.977,0.671,80.000,702.000,1.000
5321.550,5112.158,3642.220,4600.166,5320.554,5214.001,5326.021,4856.854,-0.108,0.744,-0.540,0.183,0.885,0.641,80.000,703.000,1.000
5312.237,5101.794,3643.625,4597.638,5307.842,5202.351,5311.409,4845.350,-0.108,0.745,-0.541,0.336,1.007,0.671,80.000,704.000,1.000
5301.766,5089.304,3643.377,4592.751,5292.873,5188.607,5294.774,4831.176,-0.109,0.743,-0.542,0.214,1.129,0.549,80.000,705.000,1.000
5289.083,5074.841,3641.363,4585.180,5276.008,5172.832,5276.388,4814.522,-0.108,0.744,-0.541,0.366,1.129,0.610,80.000,706.000,1.000
5274.301,5059.276,3638.508,4576.424,5258.423,5155.627,5256.992,4796.377,-0.107,0.743,-0.540,0.488,1.099,0.610,80.000,707.000,1.000
5258.472,5043.797,3636.246,4568.192,5241.254,5137.750,5237.257,4777.622,-0.108,0.743,-0.540,0.549,1.129,0.610,80.000,708.000,1.000
5242.670,5029.115,3635.437,4561.169,5224.803,5119.626,5217.400,4758.638,-0.107,0.744,-0.543,0.610,1.221,0.580,80.000,709.000,1.000
5227.483,5014.998,3635.898,4555.288,5208.558,5101.247,5197.313,4739.580,-0.107,0.742,-0.537,0.549,1.190,0.641,80.000,710.000,1.000
5212.926,5000.546,3636.702,4550.239,5191.729,5082.466,5176.891,4720.667,-0.105,0.742,-0.541,0.549,1.434,0.549,80.000,711.000,1.000
5198.487,4985.011,3636.776,4545.522,5173.833,5063.441,5156.314,4702.231,-0.107,0.743,-0.540,0.610,1.495,0.519,80.000,712.000,1.000
5183.404,4968.463,3635.474,4540.471,5155.038,5044.839,5136.082,4684.633,-0.105,0.746,-0.537,0.732,1.556,0.458,80.000,713.000,1.000
5167.210,4951.660,3632.905,4534.563,5136.027,5027.466,5116.714,4668.123,-0.105,0.745,-0.538,0.854,1.709,0.427,80.000,714.000,1.000
5149.990,4935.292,3629.736,4527.611,5117.492,5011.659,5098.418,4652.716,-0.105,0.747,-0.537,0.916,1.678,0.305,80.000,715.000,1.000
5131.952,4919.349,3626.498,4519.444,5099.719,4997.029,5081.070,4638.148,-0.107,0.748,-0.537,1.007,1.801,0.275,80.000,716.000,1.000
5112.864,4903.089,3623.040,4509.691,5082.556,4982.750,5064.478,4624.097,-0.105,0.747,-0.536,1.038,1.831,0.153,80.000,717.000,1.000
5091.972,4885.440,3618.578,4498.117,5065.627,4967.995,5048.598,4610.588,-0.104,0.746,-0.538,1.099,1.892,0.153,80.000,718.000,1.000
5068.478,4865.429,3612.193,4484.962,5048.425,4952.071,5033.370,4597.926,-0.105,0.746,-0.542,1.068,2.014,0.092,80.000,719.000,1.000
5042.194,4842.476,3603.415,4470.881,5030.279,4934.320,5018.329,4586.033,-0.105,0.747,-0.540,1.099,2.045,0.000,80.000,720.000,1.000
5013.765,4816.582,3592.496,4456.519,5010.470,4914.154,5002.518,4574.055,-0.104,0.749,-0.539,1.129,2.106,-0.092,80.000,721.000,1.000
4984.338,4788.408,3580.244,4441.996,4988.563,4891.446,4984.967,4560.825,-0.105,0.748,-0.540,1.099,2.136,-0.092,80.000,722.000,1.000
4955.212,4759.258,3567.751,4426.968,4964.724,4866.982,4965.311,4545.563,-0.105,0.748,-0.537,1.068,2.228,-0.122,80.000,723.000,1.000
4927.417,4730.762,3556.094,4411.190,4939.627,4842.297,4943.854,4528.031,-0.105,0.747,-0.539,1.099,2.289,-0.122,80.000,724.000,1.000
4901.084,4704.042,3545.709,4394.663,4913.791,4818.644,4920.946,4508.121,-0.106,0.747,-0.537,1.099,2.380,-0.214,80.000,725.000,1.000
4875.347,4678.931,3535.955,4377.324,4886.974,4795.934,4896.363,4485.565,-0.107,0.748,-0.539,1.251,2.350,-0.244,80.000,726.000,1.000
4849.221,4654.267,3525.651,4359.089,4858.481,4772.922,4869.470,4460.215,-0.107,0.747,-0.542,1.221,2.350,-0.183,80.000,727.000,1.000
4822.327,4628.969,3514.018,4339.891,4827.992,4748.333,4839.903,4432.344,-0.106,0.748,-0.542,1.221,2.350,-0.275,80.000,728.000,1.000
4794.486,4602.538,3500.856,4319.252,4795.800,4721.554,4807.885,4402.482,-0.106,0.746,-0.540,1.312,2.441,-0.244,80.000,729.000,1.000
4765.155,4574.804,3486.238,4296.469,4762.488,4692.573,4774.017,4371.220,-0.105,0.747,-0.542,1.251,2.472,-0.244,80.000,730.000,1.000
4733.954,4545.831,3470.535,4271.903,4728.736,4661.892,4739.018,4339.261,-0.108,0.746,-0.540,1.343,2.411,-0.275,80.000,731.000,1.000
4701.536,4516.164,3454.576,4247.568,4695.354,4630.647,4703.567,4307.334,-0.108,0.749,-0.540,1.343,2.380,-0.275,80.000,732.000,1.000
4669.312,4486.695,3439.295,4225.574,4663.051,4600.356,4668.095,4275.720,-0.106,0.748,-0.538,1.343,2.472,-0.336,80.000,733.000,1.000
4638.349,4458.057,3425.132,4206.147,4632.026,4572.133,4632.671,4243.995,-0.107,0.749,-0.540,1.343,2.350,-0.275,80.000,734.000,1.000
4608.933,4430.359,3411.937,4187.737,4601.998,4546.112,4597.219,4211.532,-0.108,0.750,-0.542,1.312,2.258,-0.214,80.000,735.000,1.000
4580.923,4403.492,3399.384,4168.727,4572.646,4521.598,4561.881,4178.240,-0.108,0.746,-0.541,1.434,2.228,-0.244,80.000,736.000,1.000
4553.956,4377.372,3387.333,4148.651,4543.916,4497.617,4527.142,4144.824,-0.108,0.745,-0.538,1.282,2.167,-0.214,80.000,737.000,1.000
4527.343,4351.769,3375.753,4128.166,4515.888,4473.273,4493.669,4112.485,-0.109,0.747,-0.538,1.373,2.106,-0.214,80.000,738.000,1.000
4500.129,4326.033,3364.346,4108.189,4488.400,4447.808,4462.024,4082.274,-0.109,0.747,-0.543,1.434,2.167,-0.183,80.000,739.000,1.000
4471.364,4299.236,3352.288,4088.766,4460.910,4420.734,4432.425,4054.586,-0.106,0.747,-0.540,1.495,2.106,-0.183,80.000,740.000,1.000
4440.244,4270.630,3338.431,4068.630,4432.796,4392.066,4404.683,4029.134,-0.106,0.746,-0.537,1.526,2.075,-0.153,80.000,741.000,1.000
4406.396,4239.991,3321.958,4046.202,4403.753,4362.309,4378.307,4005.331,-0.108,0.747,-0.538,1.434,2.075,-0.183,80.000,742.000,1.000
4370.334,4207.600,3302.953,4021.096,4373.838,4332.055,4352.649,3982.643,-0.106,0.747,-0.538,1.404,1.923,-0.183,80.000,743.000,1.000
4333.262,4173.920,3282.305,3994.371,4343.161,4301.461,4326.958,3960.655,-0.107,0.748,-0.538,1.434,1.770,-0.183,80.000,744.000,1.000
4296.156,4139.307,3261.049,3967.355,4311.590,4270.161,4300.506,3938.902,-0.107,0.747,-0.538,1.465,1.831,-0.122,80.000,745.000,1.000
4259.067,4103.837,3239.673,3940.453,4278.643,4237.599,4272.743,3916.663,-0.107,0.748,-0.539,1.404,1.862,-0.061,80.000,746.000,1.000
4221.396,4067.250,3217.930,3913.106,4243.649,4203.376,4243.271,3892.927,-0.107,0.746,-0.539,1.526,1.678,-0.031,80.000,747.000,1.000
4182.815,4029.368,3195.394,3884.723,4206.338,4167.563,4211.809,3866.706,-0.108,0.746,-0.537,1.404,1.678,-0.031,80.000,748.000,1.000
4143.704,3990.624,3172.068,3855.297,4167.307,4130.844,4178.316,3837.440,-0.106,0.746,-0.540,1.373,1.617,0.000,80.000,749.000,1.000
4104.552,3951.821,3148.248,3825.038,4127.620,4094.012,4142.959,3805.085,-0.107,0.746,-0.537,1.404,1.495,0.031,80.000,750.000,1.000
4065.444,3913.483,3124.169,3793.959,4087.964,4057.227,4105.897,3770.031,-0.106,0.747,-0.537,1.312,1.465,0.122,80.000,751.000,1.000
4026.433,3875.779,3100.161,3762.069,4048.433,4020.045,4067.272,3733.165,-0.106,0.748,-0.540,1.373,1.434,0.092,80.000,752.000,1.000
3987.889,3838.841,3076.765,3729.668,4008.874,3982.100,4027.352,3695.716,-0.106,0.747,-0.540,1.251,1.404,0.031,80.000,753.000,1.000
3950.103,3802.696,3054.281,3697.249,3969.066,3943.423,3986.439,3658.557,-0.106,0.748,-0.540,1.343,1.373,-0.031,80.000,754.000,1.000
3912.919,3767.045,3032.403,3665.094,3928.719,3904.262,3944.713,3621.662,-0.106,0.748,-0.539,1.190,1.465,0.031,80.000,755.000,1.000
3876.132,3731.511,3010.647,3633.305,3887.757,3864.964,3902.366,3584.550,-0.104,0.748,-0.536,1.160,1.495,0.061,80.000,756.000,1.000
3839.922,3696.126,2989.013,3602.204,3846.702,3826.026,3859.824,3547.126,-0.104,0.747,-0.536,1.251,1.465,0.000,80.000,757.000,1.000
3804.452,3661.229,2967.952,3572.214,3806.481,3787.944,3817.641,3509.838,-0.105,0.745,-0.538,1.221,1.404,-0.061,80.000,758.000,1.000
3769.323,3626.803,2947.757,3543.403,3767.674,3750.759,3776.096,3473.160,-0.104,0.747,-0.539,1.221,1.373,0.031,80.000,759.000,1.000
3733.819,3592.197,2928.202,3515.412,3730.005,3713.821,3734.925,3437.065,-0.104,0.746,-0.543,1.160,1.221,0.122,80.000,760.000,1.000
3697.603,3556.680,2908.781,3487.874,3692.662,3676.191,3693.533,3400.953,-0.103,0.746,-0.544,1.251,1.251,-0.122,80.000,761.000,1.000
3660.992,3520.285,2889.225,3460.769,3655.121,3637.395,3651.531,3364.136,-0.103,0.746,-0.538,1.160,1.312,-0.031,80.000,762.000,1.000
3624.730,3483.995,2869.783,3434.391,3617.626,3597.872,3609.173,3326.510,-0.103,0.747,-0.542,1.282,1.343,-0.031,80.000,763.000,1.000
3589.602,3449.056,2851.020,3409.161,3580.974,3558.785,3567.470,3288.923,-0.101,0.748,-0.541,1.190,1.312,-0.183,80.000,764.000,1.000
3555.851,3416.007,2833.116,3384.975,3545.784,3521.293,3527.749,3252.753,-0.102,0.748,-0.543,1.190,1.343,-0.122,80.000,765.000,1.000
3522.444,3384.116,2815.082,3360.161,3511.750,3485.693,3490.802,3218.851,-0.102,0.747,-0.543,1.160,1.434,-0.092,80.000,766.000,1.000
3487.274,3351.650,2794.961,3331.840,3477.576,3451.142,3456.350,3186.851,-0.103,0.746,-0.542,1.099,1.617,-0.153,80.000,767.000,1.000
3448.676,3316.858,2771.242,3298.180,3441.780,3416.276,3423.316,3155.505,-0.103,0.746,-0.543,1.190,1.495,-0.214,80.000,768.000,1.000
3406.694,3278.969,2744.152,3260.094,3403.627,3380.190,3390.503,3123.572,-0.102,0.745,-0.542,1.068,1.556,-0.275,80.000,769.000,1.000
3362.729,3238.479,2715.467,3220.709,3363.408,3342.887,3357.073,3090.504,-0.103,0.746,-0.540,1.160,1.526,-0.153,80.000,770.000,1.000
3318.261,3196.565,2687.061,3183.346,3321.966,3304.881,3322.543,3056.501,-0.102,0.747,-0.541,1.129,1.678,-0.244,80.000,771.000,1.000
3274.021,3154.235,2659.631,3149.322,3280.004,3266.578,3286.606,3021.997,-0.103,0.747,-0.543,1.190,1.587,-0.275,80.000,772.000,1.000
3230.066,3112.038,2632.732,3117.168,3237.775,3228.137,3249.098,2987.111,-0.102,0.746,-0.541,1.038,1.617,-0.244,80.000,773.000,1.000
3186.327,3070.369,2605.721,3084.193,3195.269,3189.665,3210.118,2951.585,-0.104,0.745,-0.541,1.190,1.648,-0.336,80.000,774.000,1.000
3142.951,3029.672,2578.459,3048.799,3152.593,3151.287,3170.090,2915.156,-0.103,0.746,-0.542,1.099,1.617,-0.305,80.000,775.000,1.000
3100.304,2990.272,2551.408,3011.502,3110.201,3113.078,3129.581,2877.858,-0.103,0.746,-0.540,1.099,1.556,-0.336,80.000,776.000,1.000
3058.977,2952.212,2525.438,2974.390,3068.764,3075.072,3088.945,2839.956,-0.102,0.745,-0.539,1.099,1.556,-0.244,80.000,777.000,1.000
3019.565,2915.310,2501.393,2939.718,3028.745,3037.294,3048.111,2801.680,-0.105,0.746,-0.537,1.160,1.587,-0.275,80.000,778.000,1.000
2982.000,2879.123,2479.383,2908.386,2989.945,2999.600,3006.596,2763.015,-0.103,0.746,-0.539,1.190,1.678,-0.305,80.000,779.000,1.000
2945.258,2842.907,2458.436,2879.196,2951.383,2961.427,2963.653,2723.661,-0.103,0.746,-0.539,1.221,1.648,-0.336,80.000,780.000,1.000
2908.124,2805.998,2437.179,2849.874,2911.838,2921.988,2918.701,2683.379,-0.103,0.747,-0.541,1.221,1.617,-0.305,80.000,781.000,1.000
2870.024,2768.293,2414.822,2818.977,2870.702,2880.869,2871.913,2642.493,-0.103,0.746,-0.539,1.190,1.648,-0.214,80.000,782.000,1.000
2830.912,2730.094,2391.250,2786.477,2828.218,2838.276,2824.222,2601.815,-0.104,0.744,-0.541,1.251,1.740,-0.153,80.000,783.000,1.000
2790.802,2691.497,2366.435,2752.695,2784.916,2794.644,2776.593,2561.871,-0.102,0.745,-0.542,1.160,1.709,-0.275,80.000,784.000,1.000
2749.718,2652.110,2340.165,2717.441,2741.072,2750.241,2729.448,2522.332,-0.101,0.746,-0.541,1.221,1.740,-0.244,80.000,785.000,1.000
2707.838,2611.397,2312.244,2680.400,2696.712,2705.242,2682.837,2482.386,-0.103,0.746,-0.537,1.160,1.801,-0.092,80.000,786.000,1.000
2665.472,2569.269,2282.780,2641.859,2651.934,2660.042,2636.931,2441.580,-0.103,0.746,-0.537,1.160,1.709,-0.092,80.000,787.000,1.000
2623.060,2526.440,2252.420,2602.962,2607.182,2615.401,2592.243,2400.284,-0.103,0.747,-0.542,1.160,1.740,-0.092,80.000,788.000,1.000
2581.239,2484.238,2222.357,2565.293,2563.212,2572.182,2549.392,2359.427,-0.102,0.745,-0.542,1.251,1.678,-0.153,80.000,789.000,1.000
2540.707,2443.933,2193.896,2530.014,2520.782,2530.851,2508.676,2319.873,-0.101,0.745,-0.542,1.190,1.678,-0.244,80.000,790.000,1.000
2501.717,2406.117,2167.754,2497.225,2480.386,2491.331,2469.989,2282.081,-0.103,0.744,-0.539,1.190,1.648,-0.244,80.000,791.000,1.000
2463.590,2370.458,2143.481,2465.791,2442.121,2453.329,2433.041,2246.162,-0.102,0.743,-0.540,1.312,1.709,-0.214,80.000,792.000,1.000
2424.957,2335.788,2119.557,2433.691,2405.495,2416.488,2397.357,2211.884,-0.102,0.743,-0.540,1.465,1.587,-0.153,80.000,793.000,1.000
2384.707,2300.517,2094.342,2399.280,2369.394,2380.231,2362.173,2178.670,-0.102,0.741,-0.540,1.434,1.526,-0.214,80.000,794.000,1.000
2342.560,2263.270,2067.022,2362.537,2332.440,2343.760,2326.593,2145.748,-0.104,0.740,-0.538,1.526,1.465,-0.305,80.000,795.000,1.000
2298.702,2223.374,2037.568,2324.523,2293.462,2306.345,2289.899,2112.289,-0.104,0.738,-0.541,1.678,1.495,-0.305,80.000,796.000,1.000
2253.328,2180.978,2006.268,2286.061,2251.891,2267.569,2251.733,2077.634,-0.103,0.738,-0.540,1.770,1.465,-0.305,80.000,797.000,1.000
2206.820,2136.866,1973.661,2247.534,2207.985,2227.305,2212.094,2041.592,-0.103,0.738,-0.540,1.831,1.373,-0.305,80.000,798.000,1.000
2160.071,2092.142,1940.692,2209.269,2162.670,2185.583,2171.224,2004.362,-0.103,0.738,-0.538,1.923,1.343,-0.305,80.000,799.000,1.000
2114.292,2047.899,1908.484,2171.505,2117.069,2142.623,2129.474,1966.198,-0.104,0.740,-0.540,1.984,1.343,-0.519,80.000,800.000,1.000
2070.351,2004.799,1877.704,2134.135,2071.958,2098.875,2087.098,1927.186,-0.103,0.741,-0.541,2.136,1.312,-0.488,80.000,801.000,1.000
2028.324,1962.815,1848.160,2096.796,2027.498,2054.978,2044.060,1887.266,-0.104,0.741,-0.542,2.136,1.190,-0.549,80.000,802.000,1.000
1987.640,1921.531,1819.169,2059.378,1983.525,2011.668,2000.209,1846.438,-0.103,0.745,-0.544,2.167,1.221,-0.610,80.000,803.000,1.000
1947.477,1880.637,1790.221,2022.291,1939.986,1969.496,1955.603,1804.996,-0.104,0.744,-0.542,2.167,1.251,-0.549,80.000,804.000,1.000
1907.082,1840.038,1761.211,1986.046,1897.030,1928.455,1910.542,1763.510,-0.104,0.744,-0.544,2.197,1.251,-0.427,80.000,805.000,1.000
1866.076,1799.800,1732.312,1950.735,1854.824,1887.965,1865.356,1722.568,-0.105,0.746,-0.544,2.258,1.099,-0.366,80.000,806.000,1.000
1824.708,1760.265,1703.948,1916.173,1813.496,1847.342,1820.312,1682.511,-0.105,0.748,-0.543,2.258,1.129,-0.519,80.000,807.000,1.000
1783.743,1721.991,1676.700,1882.248,1773.200,1806.318,1775.728,1643.443,-0.105,0.750,-0.542,2.136,1.099,-0.488,80.000,808.000,1.000
1743.831,1685.196,1650.795,1848.754,1733.951,1765.101,1732.004,1605.365,-0.104,0.752,-0.544,2.136,0.946,-0.519,80.000,809.000,1.000
1704.915,1649.274,1625.655,1815.250,1695.339,1723.993,1689.431,1568.201,-0.105,0.751,-0.545,2.106,0.916,-0.549,80.000,810.000,1.000
1666.363,1613.129,1600.234,1781.343,1656.669,1683.149,1648.106,1531.842,-0.105,0.751,-0.547,1.984,0.885,-0.488,80.000,811.000,1.000
1627.522,1576.027,1573.825,1746.992,1617.546,1642.700,1608.110,1496.329,-0.107,0.751,-0.545,1.770,0.916,-0.488,80.000,812.000,1.000
1588.034,1537.934,1546.430,1712.758,1578.213,1602.804,1569.573,1461.928,-0.108,0.752,-0.545,1.678,0.702,-0.366,80.000,813.000,1.000
1547.944,1499.223,1518.529,1679.679,1539.286,1563.508,1532.479,1428.862,-0.105,0.750,-0.542,1.587,0.732,-0.366,80.000,814.000,1.000
1507.530,1460.285,1490.431,1647.669,1501.077,1524.700,1496.385,1396.672,-0.106,0.748,-0.542,1.556,0.671,-0.305,80.000,815.000,1.000
1466.782,1421.233,1461.691,1614.089,1463.069,1486.198,1460.340,1363.853,-0.104,0.748,-0.542,1.587,0.580,-0.153,80.000,816.000,1.000
1425.326,1381.853,1431.483,1575.806,1424.228,1447.932,1423.337,1328.704,-0.106,0.746,-0.542,1.556,0.549,-0.061,80.000,817.000,1.000
1383.106,1341.903,1399.666,1532.743,1383.891,1410.084,1385.011,1290.724,-0.105,0.745,-0.542,1.465,0.519,-0.031,80.000,818.000,1.000
1340.798,1301.460,1367.195,1488.153,1342.282,1373.015,1345.892,1250.989,-0.104,0.746,-0.541,1.404,0.549,-0.214,80.000,819.000,1.000
1299.286,1260.966,1335.417,1445.743,1300.280,1336.962,1306.959,1211.219,-0.104,0.744,-0.541,1.404,0.519,-0.092,80.000,820.000,1.000
1258.925,1220.892,1305.109,1407.311,1258.824,1301.784,1268.957,1172.647,-0.108,0.744,-0.544,1.373,0.458,-0.031,80.000,821.000,1.000
1219.496,1181.434,1276.193,1372.618,1218.521,1267.038,1232.140,1135.636,-0.105,0.745,-0.541,1.190,0.427,0.000,80.000,822.000,1.000
1180.665,1142.640,1248.198,1340.350,1179.635,1232.272,1196.434,1099.987,-0.105,0.744,-0.542,1.190,0.458,-0.031,80.000,823.000,1.000
1142.319,1104.646,1220.840,1308.911,1142.117,1197.123,1161.542,1065.244,-0.106,0.742,-0.542,1.099,0.427,-0.031,80.000,824.000,1.000
1104.603,1067.615,1194.189,1277.081,1105.514,1161.181,1126.816,1030.749,-0.104,0.743,-0.539,1.068,0.366,0.000,80.000,825.000,1.000
1067.719,1031.541,1168.391,1244.598,1069.046,1124.001,1091.317,995.849,-0.105,0.744,-0.539,1.038,0.305,0.031,80.000,826.000,1.000
1031.660,996.223,1143.305,1211.979,1032.017,1085.379,1054.229,960.257,-0.104,0.744,-0.539,1.007,0.336,-0.122,80.000,827.000,1.000
996.097,961.401,1118.476,1179.774,994.327,1045.659,1015.329,924.251,-0.104,0.744,-0.540,0.946,0.336,-0.244,80.000,828.000,1.000
960.488,926.866,1093.455,1148.128,956.572,1005.670,975.090,888.510,-0.104,0.746,-0.538,0.977,0.275,-0.244,80.000,829.000,1.000
924.398,892.506,1068.096,1116.654,919.530,966.241,934.270,853.602,-0.104,0.747,-0.538,0.854,0.305,-0.305,80.000,830.000,1.000
887.987,858.427,1042.670,1084.696,883.563,927.839,893.394,819.559,-0.104,0.746,-0.541,0.854,0.275,-0.427,80.000,831.000,1.000
852.126,824.943,1017.706,1052.086,848.472,890.567,852.602,785.988,-0.105,0.749,-0.539,0.793,0.244,-0.336,80.000,832.000,1.000
817.477,792.043,993.386,1019.233,813.572,854.159,811.834,752.473,-0.106,0.750,-0.540,0.610,0.275,-0.427,80.000,833.000,1.000
783.537,758.997,969.104,986.393,777.952,817.996,771.071,718.881,-0.106,0.749,-0.540,0.549,0.305,-0.458,80.000,834.000,1.000
749.128,724.951,943.909,953.652,741.083,781.462,730.498,685.470,-0.105,0.748,-0.542,0.397,0.275,-0.488,80.000,835.000,1.000
713.511,689.742,917.150,921.261,703.168,744.374,690.451,652.644,-0.104,0.750,-0.541,0.275,0.244,-0.610,80.000,836.000,1.000
676.549,653.808,888.629,889.201,664.814,707.010,651.234,620.518,-0.104,0.750,-0.542,0.153,0.336,-0.641,80.000,837.000,1.000
638.453,617.677,858.655,857.032,626.660,669.891,613.102,588.887,-0.103,0.751,-0.542,-0.092,0.336,-0.671,80.000,838.000,1.000
599.937,581.854,828.184,824.627,589.417,633.660,576.488,557.648,-0.104,0.750,-0.544,-0.122,0.366,-0.763,80.000,839.000,1.000
562.060,546.864,798.499,792.330,553.811,598.918,542.073,526.949,-0.102,0.750,-0.543,-0.275,0.458,-0.610,80.000,840.000,1.000
525.488,513.046,770.462,760.216,520.162,565.902,510.429,496.925,-0.104,0.749,-0.542,-0.214,0.519,-0.671,80.000,841.000,1.000
490.054,480.369,744.019,727.869,488.161,534.340,481.548,467.573,-0.104,0.749,-0.541,-0.244,0.641,-0.641,80.000,842.000,1.000
455.070,448.463,718.374,695.014,457.103,503.668,454.723,438.853,-0.103,0.751,-0.538,-0.244,0.671,-0.641,80.000,843.000,1.000
419.954,416.731,692.559,661.874,426.225,473.248,428.822,410.655,-0.105,0.747,-0.539,-0.336,0.702,-0.610,80.000,844.000,1.000
384.379,384.471,665.805,628.496,394.764,442.410,402.618,382.491,-0.107,0.750,-0.541,-0.366,0.732,-0.610,80.000,845.000,1.000
348.156,351.160,637.732,594.413,362.066,410.672,375.074,353.494,-0.108,0.749,-0.541,-0.305,0.763,-0.671,80.000,846.000,1.000
311.553,316.880,608.748,559.738,328.045,378.130,345.689,323.141,-0.107,0.749,-0.540,-0.275,0.854,-0.641,80.000,847.000,1.000
275.441,282.319,579.951,525.503,293.286,345.338,314.559,291.646,-0.108,0.746,-0.541,-0.336,0.885,-0.580,80.000,848.000,1.000
240.610,248.262,552.303,492.403,258.502,312.680,282.057,259.409,-0.108,0.749,-0.535,-0.336,0.763,-0.610,80.000,849.000,1.000
207.280,215.245,526.198,460.520,224.174,280.092,248.620,226.651,-0.107,0.747,-0.539,-0.275,0.763,-0.549,80.000,850.000,1.000
175.440,183.558,501.750,430.150,190.609,247.265,214.708,193.721,-0.107,0.747,-0.539,-0.183,0.763,-0.519,80.000,851.000,1.000
145.163,153.239,478.920,401.666,157.894,213.897,180.630,161.124,-0.108,0.745,-0.540,-0.122,0.885,-0.580,80.000,852.000,1.000
116.163,123.967,457.290,374.620,125.782,179.852,146.340,129.061,-0.107,0.745,-0.539,-0.061,0.854,-0.519,80.000,853.000,1.000
87.475,95.205,436.098,347.785,93.882,145.302,111.545,97.307,-0.106,0.744,-0.542,0.122,0.977,-0.488,80.000,854.000,1.000
58.288,66.691,414.836,320.478,62.085,110.864,76.052,65.699,-0.106,0.741,-0.541,0.275,0.916,-0.458,80.000,855.000,1.000
28.910,38.699,393.718,293.305,30.688,77.502,40.022,34.546,-0.106,0.742,-0.538,0.305,0.885,-0.519,80.000,856.000,1.000
