EEG 1,EEG 2,EEG 3,EEG 4,EEG 5,EEG 6,EEG 7,EEG 8,Accelerometer X,Accelerometer Y,Accelerometer Z,Gyroscope X,Gyroscope Y,Gyroscope Z,Battery Level,Counter,Validation Indicator
4.768,19.996,6.016,8.477,10.086,5.893,8.901,8.767,-0.148,0.984,-0.017,1.282,1.862,-0.031,93.333,109265.000,1.000
3.427,20.220,5.016,8.299,10.093,5.748,8.321,8.473,-0.149,0.985,-0.021,1.373,1.923,0.061,93.333,109266.000,1.000
2.503,20.841,3.658,7.348,8.756,4.364,7.153,6.425,-0.153,0.986,-0.018,1.343,1.801,-0.031,93.333,109267.000,1.000
2.225,21.624,2.729,6.582,8.011,3.534,6.193,4.791,-0.156,0.989,-0.018,1.312,1.678,-0.183,93.333,109268.000,1.000
2.312,21.738,2.154,6.133,8.126,3.719,5.389,4.075,-0.157,0.994,-0.021,1.221,1.434,-0.305,93.333,109269.000,1.000
2.563,20.727,1.189,5.270,7.157,3.317,4.285,2.566,-0.156,0.994,-0.017,1.129,1.251,-0.366,93.333,109270.000,1.000
3.022,19.153,-0.105,3.978,4.643,1.795,3.110,-0.125,-0.154,0.991,-0.019,0.854,1.190,-0.519,93.333,109271.000,1.000
3.527,17.825,-0.910,3.054,2.612,0.814,2.309,-2.190,-0.151,0.990,-0.021,0.793,1.099,-0.549,93.333,109272.000,1.000
3.565,16.773,-1.225,2.468,1.939,1.092,1.392,-3.087,-0.147,0.990,-0.020,0.702,1.129,-0.549,93.333,109273.000,1.000
2.868,15.505,-1.990,1.146,0.830,0.757,-0.538,-4.690,-0.146,0.989,-0.019,0.610,1.068,-0.519,93.333,109274.000,1.000
1.839,13.966,-3.373,-1.146,-1.682,-1.570,-3.215,-7.689,-0.147,0.988,-0.018,0.671,1.038,-0.458,93.333,109275.000,1.000
1.066,12.646,-4.290,-3.112,-3.637,-4.327,-5.230,-9.759,-0.147,0.988,-0.020,0.549,1.160,-0.427,93.333,109276.000,1.000
0.632,11.894,-4.122,-3.825,-3.403,-5.525,-5.729,-9.130,-0.146,0.988,-0.015,0.702,1.160,-0.397,93.333,109277.000,1.000
0.211,11.627,-3.698,-4.046,-2.479,-5.730,-5.255,-7.454,-0.148,0.989,-0.017,0.641,1.068,-0.214,93.333,109278.000,1.000
-0.387,11.690,-3.890,-4.774,-2.856,-6.389,-4.769,-6.984,-0.149,0.990,-0.018,0.610,1.190,-0.153,93.333,109279.000,1.000
-1.047,12.040,-4.299,-5.605,-3.783,-6.975,-4.624,-7.195,-0.150,0.988,-0.018,0.580,1.190,0.061,93.333,109280.000,1.000
-1.570,12.500,-4.250,-5.695,-3.644,-6.237,-4.809,-6.590,-0.150,0.988,-0.018,0.610,1.190,0.214,93.333,109281.000,1.000
-1.816,12.720,-4.097,-5.343,-3.122,-4.890,-5.309,-5.788,-0.149,0.988,-0.020,0.580,1.190,0.275,93.333,109282.000,1.000
-1.722,12.575,-4.412,-5.244,-3.671,-4.464,-5.693,-5.978,-0.151,0.987,-0.020,0.610,1.160,0.244,93.333,109283.000,1.000
-1.405,12.249,-4.742,-5.034,-4.376,-4.478,-5.127,-6.019,-0.153,0.988,-0.017,0.610,1.099,0.366,93.333,109284.000,1.000
-1.162,11.839,-4.358,-3.977,-3.386,-3.397,-3.426,-4.116,-0.151,0.989,-0.015,0.580,1.068,0.366,93.333,109285.000,1.000
-1.041,11.354,-3.491,-2.329,-1.303,-1.621,-1.433,-1.148,-0.152,0.989,-0.018,0.549,0.916,0.244,93.333,109286.000,1.000
-0.614,11.148,-2.745,-0.794,-0.145,-0.862,0.130,0.615,-0.153,0.989,-0.013,0.488,0.763,0.122,93.333,109287.000,1.000
0.511,11.735,-1.906,0.750,0.197,-0.982,1.476,1.187,-0.152,0.990,-0.016,0.458,0.702,0.183,93.333,109288.000,1.000
2.206,13.141,-0.377,2.815,1.496,-0.171,2.957,2.316,-0.149,0.989,-0.016,0.519,0.732,0.214,93.333,109289.000,1.000
4.104,14.868,1.623,4.982,3.681,1.747,4.185,3.903,-0.149,0.988,-0.016,0.458,0.641,0.183,93.333,109290.000,1.000
6.083,16.497,3.363,6.286,4.881,2.946,4.589,4.084,-0.147,0.988,-0.016,0.488,0.671,0.244,93.333,109291.000,1.000
8.199,17.970,4.928,6.869,4.911,2.861,4.346,2.820,-0.146,0.989,-0.018,0.488,0.610,0.336,93.333,109292.000,1.000
10.354,19.245,7.065,7.922,5.604,3.026,4.040,2.237,-0.145,0.991,-0.017,0.366,0.702,0.336,93.333,109293.000,1.000
12.436,20.146,9.843,9.947,7.386,4.025,3.824,3.088,-0.143,0.990,-0.017,0.427,0.793,0.275,93.333,109294.000,1.000
14.677,20.742,12.585,12.297,8.524,4.361,3.588,3.827,-0.142,0.990,-0.017,0.488,0.885,0.244,93.333,109295.000,1.000
17.377,21.429,15.032,14.462,8.409,3.349,3.516,3.738,-0.141,0.990,-0.013,0.366,0.916,0.275,93.333,109296.000,1.000
20.305,22.377,17.442,16.538,8.671,2.523,3.818,4.171,-0.143,0.990,-0.014,0.397,0.946,0.244,93.333,109297.000,1.000
22.687,23.179,19.443,18.147,10.020,2.911,4.172,5.616,-0.141,0.990,-0.018,0.549,1.007,0.244,93.333,109298.000,1.000
23.826,23.331,20.013,18.230,10.759,3.308,4.125,6.322,-0.143,0.989,-0.016,0.458,1.007,0.183,93.333,109299.000,1.000
23.607,22.930,19.047,16.681,9.984,2.805,4.001,5.438,-0.144,0.987,-0.014,0.397,1.129,0.275,93.333,109300.000,1.000
22.456,22.595,17.908,15.049,9.664,2.846,4.682,4.946,-0.145,0.989,-0.015,0.366,1.251,0.122,93.333,109301.000,1.000
21.016,22.815,17.782,14.758,11.567,4.905,6.430,6.533,-0.145,0.989,-0.016,0.305,1.251,0.061,93.333,109302.000,1.000
19.959,23.710,18.461,15.608,14.435,7.977,8.674,8.962,-0.145,0.990,-0.014,0.305,1.221,0.031,93.333,109303.000,1.000
19.762,25.242,19.330,16.747,16.347,10.357,10.973,10.533,-0.144,0.990,-0.015,0.214,1.251,-0.092,93.333,109304.000,1.000
20.317,27.165,20.447,18.027,17.727,12.258,13.340,11.906,-0.144,0.989,-0.019,0.336,1.373,-0.214,93.333,109305.000,1.000
20.961,28.881,21.879,19.484,19.664,14.504,15.562,14.203,-0.144,0.989,-0.015,0.275,1.404,-0.214,93.333,109306.000,1.000
21.116,29.811,22.893,20.414,21.126,16.094,16.956,16.197,-0.143,0.987,-0.013,0.214,1.495,-0.305,93.333,109307.000,1.000
20.681,29.866,22.772,20.140,20.508,15.443,17.020,15.968,-0.143,0.985,-0.014,0.214,1.526,-0.366,93.333,109308.000,1.000
19.812,29.328,21.890,19.205,18.641,13.143,15.945,14.123,-0.143,0.987,-0.011,0.275,1.434,-0.427,93.333,109309.000,1.000
18.731,28.464,21.152,18.753,17.639,11.181,14.336,12.839,-0.144,0.987,-0.015,0.214,1.465,-0.580,93.333,109310.000,1.000
17.851,27.552,20.806,19.064,17.627,10.018,12.744,12.567,-0.145,0.988,-0.012,0.275,1.495,-0.519,93.333,109311.000,1.000
17.709,27.085,20.661,19.732,17.336,8.815,11.765,12.360,-0.147,0.987,-0.011,0.305,1.434,-0.610,93.333,109312.000,1.000
18.482,27.555,21.028,20.870,17.196,8.059,12.061,12.698,-0.147,0.987,-0.007,0.336,1.465,-0.610,93.333,109313.000,1.000
19.739,28.817,22.299,22.840,18.733,9.107,13.574,14.889,-0.147,0.987,-0.006,0.305,1.373,-0.549,93.333,109314.000,1.000
20.837,29.931,23.813,24.941,21.094,11.084,15.082,17.898,-0.147,0.987,-0.004,0.336,1.343,-0.580,93.333,109315.000,1.000
21.427,29.943,24.349,25.780,21.449,11.216,15.333,18.982,-0.149,0.988,-0.009,0.488,1.312,-0.519,93.333,109316.000,1.000
21.458,28.701,23.755,25.102,19.109,8.750,14.302,17.664,-0.151,0.987,-0.009,0.488,1.343,-0.519,93.333,109317.000,1.000
20.921,26.674,22.923,23.926,16.192,5.807,12.690,16.029,-0.149,0.987,-0.008,0.488,1.190,-0.458,93.333,109318.000,1.000
19.942,24.329,22.239,22.818,13.901,3.881,10.760,14.943,-0.147,0.988,-0.007,0.488,1.190,-0.366,93.333,109319.000,1.000
19.082,22.105,21.356,21.516,11.321,2.264,8.588,13.184,-0.146,0.989,-0.009,0.519,1.099,-0.305,93.333,109320.000,1.000
19.126,20.652,20.537,20.379,8.538,0.705,6.910,10.795,-0.151,0.989,-0.008,0.610,1.068,-0.153,93.333,109321.000,1.000
20.333,20.443,20.772,20.543,7.681,0.749,6.677,9.978,-0.153,0.989,-0.007,0.641,1.099,-0.183,93.333,109322.000,1.000
22.157,21.269,22.241,22.208,9.561,3.010,7.882,11.545,-0.152,0.988,-0.008,0.610,0.885,-0.122,93.333,109323.000,1.000
23.774,22.549,23.858,24.062,12.056,5.477,9.607,13.383,-0.152,0.989,-0.007,0.702,0.824,0.000,93.333,109324.000,1.000
24.567,23.941,24.715,24.980,13.344,6.232,11.124,13.811,-0.150,0.989,-0.012,0.732,0.702,0.031,93.333,109325.000,1.000
24.174,25.224,24.928,25.139,14.210,5.896,12.241,13.845,-0.150,0.989,-0.010,0.732,0.610,0.061,93.333,109326.000,1.000
22.616,25.971,24.737,24.989,15.520,5.739,12.742,14.567,-0.149,0.987,-0.009,0.854,0.488,0.092,93.333,109327.000,1.000
20.555,25.979,23.947,24.371,16.075,5.395,12.502,14.932,-0.149,0.988,-0.011,0.854,0.336,0.092,93.333,109328.000,1.000
18.954,25.754,22.800,23.368,15.079,4.488,12.206,14.148,-0.147,0.988,-0.007,0.946,0.336,0.153,93.333,109329.000,1.000
18.113,25.914,22.237,22.742,14.364,4.570,12.933,13.806,-0.146,0.987,-0.007,0.977,0.366,0.244,93.333,109330.000,1.000
17.403,26.339,22.565,22.675,15.729,7.063,14.870,15.389,-0.146,0.987,-0.012,1.038,0.366,0.153,93.333,109331.000,1.000
16.213,26.441,22.800,22.153,17.896,10.609,17.097,17.522,-0.146,0.990,-0.012,1.099,0.397,0.275,93.333,109332.000,1.000
14.698,26.003,22.023,20.462,18.514,12.734,18.621,17.984,-0.144,0.988,-0.010,1.068,0.397,0.214,93.333,109333.000,1.000
13.386,25.268,20.626,18.437,17.687,13.129,19.047,16.998,-0.145,0.990,-0.012,1.129,0.488,0.275,93.333,109334.000,1.000
12.518,24.356,19.483,17.315,16.986,13.060,18.302,16.172,-0.144,0.990,-0.010,1.129,0.610,0.305,93.333,109335.000,1.000
12.111,23.123,18.574,17.069,16.244,12.483,16.442,15.395,-0.141,0.988,-0.010,1.099,0.641,0.244,93.333,109336.000,1.000
12.220,21.683,17.406,16.865,14.247,10.449,14.075,13.466,-0.141,0.989,-0.013,1.160,0.793,0.214,93.333,109337.000,1.000
12.625,20.518,16.165,16.485,11.778,7.823,12.318,11.005,-0.141,0.991,-0.013,1.068,0.854,0.153,93.333,109338.000,1.000
12.645,19.856,15.372,16.168,10.870,6.733,11.747,9.849,-0.140,0.989,-0.013,1.038,0.916,0.000,93.333,109339.000,1.000
11.847,19.459,14.802,15.548,11.318,7.300,11.793,9.828,-0.140,0.990,-0.012,1.068,1.038,-0.031,93.333,109340.000,1.000
10.654,19.125,13.813,14.032,10.861,7.469,11.596,9.015,-0.141,0.989,-0.011,1.099,1.129,-0.031,93.333,109341.000,1.000
9.800,18.915,12.511,12.088,8.934,6.390,11.005,7.231,-0.140,0.991,-0.008,1.099,1.312,-0.122,93.333,109342.000,1.000
9.517,18.848,11.604,10.972,7.373,5.489,10.276,6.389,-0.141,0.989,-0.009,1.129,1.404,-0.214,93.333,109343.000,1.000
9.506,18.717,11.135,10.982,6.888,5.495,9.251,6.844,-0.139,0.989,-0.011,1.129,1.434,-0.275,93.333,109344.000,1.000
9.424,18.315,10.337,11.095,5.823,4.979,7.578,6.441,-0.141,0.987,-0.010,1.099,1.526,-0.305,93.333,109345.000,1.000
9.140,17.696,8.983,10.647,3.489,3.170,5.617,4.222,-0.142,0.988,-0.009,1.038,1.556,-0.336,93.333,109346.000,1.000
8.534,16.984,7.708,10.089,1.653,1.627,4.185,2.070,-0.144,0.989,-0.010,0.977,1.678,-0.427,93.333,109347.000,1.000
7.342,16.016,6.631,9.598,1.243,1.413,3.344,1.280,-0.144,0.987,-0.011,1.068,1.678,-0.427,93.333,109348.000,1.000
5.397,14.553,4.917,8.346,0.471,1.038,2.301,0.394,-0.144,0.987,-0.010,1.068,1.740,-0.488,93.333,109349.000,1.000
2.891,12.727,2.243,5.858,-2.045,-0.884,0.529,-1.963,-0.143,0.988,-0.010,1.160,1.801,-0.519,93.333,109350.000,1.000
0.251,10.979,-0.427,2.957,-4.891,-3.159,-1.740,-4.641,-0.143,0.988,-0.011,1.160,1.862,-0.580,93.333,109351.000,1.000
-2.091,9.659,-2.109,0.631,-6.477,-4.133,-4.093,-6.162,-0.146,0.989,-0.013,1.099,1.862,-0.610,93.333,109352.000,1.000
-3.810,8.901,-2.956,-1.102,-7.755,-4.371,-6.266,-7.171,-0.149,0.989,-0.010,1.129,1.862,-0.519,93.333,109353.000,1.000
-4.846,8.724,-3.543,-2.530,-10.126,-5.166,-7.803,-8.677,-0.150,0.988,-0.010,1.190,1.892,-0.427,93.333,109354.000,1.000
-5.535,8.975,-3.889,-3.410,-12.602,-5.959,-8.177,-9.740,-0.149,0.988,-0.007,1.160,1.831,-0.458,93.333,109355.000,1.000
-6.267,9.245,-3.948,-3.628,-13.464,-5.505,-7.540,-9.188,-0.148,0.988,-0.011,1.190,1.801,-0.427,93.333,109356.000,1.000
-6.941,9.061,-4.300,-3.914,-13.226,-4.470,-6.710,-8.123,-0.148,0.987,-0.009,1.160,1.740,-0.397,93.333,109357.000,1.000
-7.048,8.208,-5.414,-4.919,-13.389,-4.521,-6.200,-8.274,-0.148,0.988,-0.010,1.221,1.709,-0.488,93.333,109358.000,1.000
-6.385,6.755,-6.752,-6.111,-13.521,-5.566,-5.852,-9.054,-0.149,0.986,-0.010,1.282,1.617,-0.427,93.333,109359.000,1.000
-5.467,4.876,-7.564,-6.687,-12.360,-6.261,-5.602,-8.833,-0.150,0.987,-0.010,1.434,1.617,-0.427,93.333,109360.000,1.000
-5.103,2.875,-8.105,-7.046,-10.857,-6.738,-5.870,-8.138,-0.150,0.986,-0.010,1.434,1.495,-0.336,93.333,109361.000,1.000
-5.738,1.282,-9.085,-8.156,-11.158,-8.249,-6.835,-8.845,-0.150,0.987,-0.009,1.526,1.373,-0.183,93.333,109362.000,1.000
-7.413,0.519,-10.404,-9.934,-13.085,-10.277,-7.968,-10.795,-0.149,0.990,-0.012,1.556,1.312,-0.183,93.333,109363.000,1.000
-10.000,0.436,-11.460,-11.485,-14.503,-10.733,-8.672,-12.040,-0.150,0.989,-0.012,1.617,1.373,-0.153,93.333,109364.000,1.000
-12.980,0.567,-12.277,-12.537,-14.847,-9.279,-8.823,-12.113,-0.150,0.988,-0.011,1.648,1.221,-0.183,93.333,109365.000,1.000
-15.233,0.816,-13.235,-13.398,-15.382,-7.796,-8.334,-12.240,-0.147,0.988,-0.013,1.617,1.099,-0.214,93.333,109366.000,1.000
-15.757,1.429,-14.038,-13.818,-16.121,-7.176,-6.897,-12.423,-0.149,0.987,-0.011,1.617,0.946,-0.153,93.333,109367.000,1.000
-14.654,2.273,-14.060,-13.194,-15.509,-6.272,-4.721,-11.263,-0.148,0.987,-0.011,1.678,0.946,-0.153,93.333,109368.000,1.000
-12.912,2.775,-13.482,-11.829,-13.514,-4.591,-2.861,-9.001,-0.148,0.989,-0.015,1.556,0.916,-0.092,93.333,109369.000,1.000
-11.251,2.775,-12.962,-10.683,-12.067,-3.342,-2.108,-7.734,-0.147,0.988,-0.015,1.617,0.916,-0.031,93.333,109370.000,1.000
-9.774,2.781,-12.409,-9.931,-11.839,-3.031,-2.053,-8.008,-0.146,0.990,-0.015,1.648,0.916,0.000,93.333,109371.000,1.000
-8.599,3.154,-11.206,-8.931,-11.281,-2.455,-1.853,-8.002,-0.146,0.988,-0.014,1.678,0.946,-0.031,93.333,109372.000,1.000
-8.003,3.648,-9.541,-7.687,-9.736,-1.147,-1.398,-6.946,-0.146,0.988,-0.013,1.617,0.916,-0.031,93.333,109373.000,1.000
-7.946,3.957,-8.453,-7.171,-8.826,-0.560,-1.097,-6.602,-0.145,0.989,-0.013,1.648,1.099,0.000,93.333,109374.000,1.000
-8.052,4.249,-8.349,-7.775,-9.422,-1.418,-0.888,-8.017,-0.144,0.988,-0.013,1.587,1.007,-0.153,93.333,109375.000,1.000
-8.084,4.800,-8.468,-8.533,-9.749,-1.929,-0.261,-9.379,-0.144,0.989,-0.012,1.556,1.007,-0.092,93.333,109376.000,1.000
-8.077,5.402,-8.201,-8.549,-8.315,-0.481,0.827,-8.900,-0.145,0.990,-0.009,1.648,1.099,-0.092,93.333,109377.000,1.000
-8.012,5.613,-7.914,-8.190,-6.468,1.714,1.875,-7.570,-0.146,0.989,-0.012,1.556,1.099,-0.214,93.333,109378.000,1.000
-7.670,5.477,-7.919,-8.065,-5.905,2.747,2.774,-6.947,-0.146,0.988,-0.015,1.495,1.129,-0.336,93.333,109379.000,1.000
-6.995,5.518,-7.634,-7.832,-5.697,3.113,4.065,-6.264,-0.145,0.989,-0.013,1.648,1.190,-0.366,93.333,109380.000,1.000
-6.292,6.047,-6.591,-6.965,-4.223,4.304,5.920,-4.152,-0.145,0.988,-0.016,1.526,1.282,-0.427,93.333,109381.000,1.000
-5.847,6.845,-5.445,-5.912,-2.360,5.715,7.547,-1.626,-0.144,0.989,-0.016,1.373,1.343,-0.427,93.333,109382.000,1.000
-5.668,7.466,-5.136,-5.437,-2.061,5.606,8.058,-0.695,-0.145,0.989,-0.015,1.312,1.373,-0.427,93.333,109383.000,1.000
-5.751,7.608,-5.559,-5.300,-2.915,4.284,7.478,-1.047,-0.146,0.989,-0.015,1.312,1.282,-0.519,93.333,109384.000,1.000
-6.175,7.211,-5.991,-4.704,-2.999,3.609,6.394,-0.882,-0.146,0.991,-0.013,1.343,1.312,-0.519,93.333,109385.000,1.000
-6.801,6.452,-6.406,-3.722,-2.391,3.794,5.045,-0.314,-0.147,0.990,-0.014,1.251,1.312,-0.610,93.333,109386.000,1.000
-7.162,5.791,-7.206,-3.047,-2.728,3.445,3.472,-0.963,-0.148,0.988,-0.016,1.251,1.404,-0.610,93.333,109387.000,1.000
-6.828,5.802,-7.914,-2.538,-3.688,2.609,2.210,-2.513,-0.150,0.988,-0.014,1.282,1.434,-0.549,93.333,109388.000,1.000
-5.709,6.681,-7.454,-1.371,-3.196,2.941,1.951,-2.865,-0.149,0.987,-0.011,1.282,1.404,-0.549,93.333,109389.000,1.000
-3.967,8.030,-5.751,0.396,-1.178,4.590,2.587,-1.783,-0.148,0.989,-0.012,1.282,1.404,-0.519,93.333,109390.000,1.000
-1.826,9.290,-3.804,1.791,0.125,5.725,3.369,-1.250,-0.148,0.986,-0.016,1.282,1.404,-0.458,93.333,109391.000,1.000
0.410,10.310,-2.074,2.583,0.026,5.794,4.023,-1.781,-0.149,0.988,-0.012,1.221,1.373,-0.488,93.333,109392.000,1.000
2.300,11.207,-0.155,3.582,0.314,6.412,4.817,-1.562,-0.150,0.987,-0.013,1.251,1.343,-0.427,93.333,109393.000,1.000
3.389,11.796,1.749,4.969,1.544,7.980,5.575,-0.056,-0.151,0.985,-0.016,1.282,1.251,-0.366,93.333,109394.000,1.000
3.513,11.633,2.514,5.769,1.748,8.353,5.721,0.779,-0.150,0.985,-0.014,1.282,1.373,-0.336,93.333,109395.000,1.000
2.896,10.616,1.711,5.421,0.005,6.262,5.258,-0.004,-0.149,0.986,-0.014,1.251,1.343,-0.366,93.333,109396.000,1.000
1.944,9.168,0.280,4.553,-1.755,3.492,4.747,-0.695,-0.150,0.987,-0.012,1.343,1.221,-0.305,93.333,109397.000,1.000
1.260,8.025,-0.633,3.848,-1.803,2.208,4.521,-0.024,-0.149,0.986,-0.014,1.251,1.190,-0.214,93.333,109398.000,1.000
1.807,8.164,-0.349,3.494,-0.657,2.521,4.848,1.070,-0.149,0.987,-0.016,1.221,1.099,-0.244,93.333,109399.000,1.000
4.289,10.384,1.820,4.054,1.220,4.110,6.444,2.100,-0.149,0.988,-0.016,1.190,1.068,-0.275,93.333,109400.000,1.000
8.105,14.192,6.051,6.208,4.702,7.620,9.542,4.337,-0.150,0.987,-0.016,1.251,1.007,-0.275,93.333,109401.000,1.000
11.476,17.447,10.580,9.044,9.098,12.406,12.600,7.669,-0.148,0.990,-0.013,1.251,1.007,-0.275,93.333,109402.000,1.000
12.852,17.947,12.372,10.138,10.950,15.248,13.204,9.080,-0.148,0.992,-0.014,1.282,0.977,-0.122,93.333,109403.000,1.000
11.863,15.342,10.048,8.203,8.163,13.771,10.551,6.590,-0.147,0.991,-0.017,1.129,0.977,-0.183,93.333,109404.000,1.000
9.034,11.148,5.207,4.554,3.166,9.602,6.203,2.471,-0.147,0.990,-0.015,1.068,1.038,-0.122,93.333,109405.000,1.000
5.239,7.211,0.385,1.251,-0.323,6.012,2.294,0.169,-0.146,0.991,-0.017,1.007,0.977,-0.214,93.333,109406.000,1.000
1.553,4.583,-3.252,-1.083,-1.773,3.884,-0.159,-0.071,-0.148,0.989,-0.016,1.099,1.007,-0.153,93.333,109407.000,1.000
-0.934,3.479,-5.625,-2.786,-2.777,2.181,-1.122,-0.086,-0.147,0.989,-0.016,1.129,1.038,-0.092,93.333,109408.000,1.000
-1.653,3.586,-6.371,-3.641,-3.369,1.011,-0.838,-0.096,-0.147,0.989,-0.017,1.099,1.038,-0.092,93.333,109409.000,1.000
-0.830,4.320,-5.074,-3.175,-2.428,1.403,0.139,0.930,-0.146,0.986,-0.016,1.007,1.068,-0.031,93.333,109410.000,1.000
0.816,5.158,-2.414,-1.947,-0.730,2.740,0.878,2.227,-0.146,0.985,-0.015,0.977,1.099,-0.061,93.333,109411.000,1.000
2.475,5.910,0.160,-1.190,-0.333,3.277,0.814,1.825,-0.147,0.988,-0.013,0.916,1.129,-0.092,93.333,109412.000,1.000
3.429,6.591,1.873,-1.213,-1.139,3.176,0.414,0.007,-0.144,0.987,-0.017,0.946,1.160,-0.092,93.333,109413.000,1.000
3.276,7.107,2.816,-1.356,-1.107,4.354,0.565,-0.901,-0.145,0.988,-0.014,0.916,1.190,-0.153,93.333,109414.000,1.000
2.259,7.326,2.958,-1.435,0.109,7.058,1.482,-0.295,-0.146,0.988,-0.017,0.977,1.282,-0.153,93.333,109415.000,1.000
1.268,7.413,2.203,-1.816,0.830,9.257,2.833,0.266,-0.147,0.989,-0.018,0.977,1.251,-0.244,93.333,109416.000,1.000
1.207,7.812,1.398,-2.016,0.882,10.012,4.610,0.591,-0.145,0.989,-0.014,1.007,1.312,-0.244,93.333,109417.000,1.000
2.311,8.711,1.883,-0.894,2.129,10.628,6.824,2.348,-0.146,0.990,-0.015,0.885,1.343,-0.153,93.333,109418.000,1.000
4.140,9.813,3.761,1.415,4.817,11.654,8.610,5.413,-0.149,0.989,-0.012,0.946,1.404,-0.183,93.333,109419.000,1.000
6.170,10.897,5.838,3.405,6.733,11.746,8.935,7.220,-0.146,0.990,-0.011,0.946,1.312,-0.244,93.333,109420.000,1.000
8.028,12.158,7.376,4.315,6.965,10.620,8.118,6.783,-0.146,0.990,-0.013,0.916,1.434,-0.244,93.333,109421.000,1.000
9.207,13.690,8.660,4.844,7.434,10.364,7.616,6.292,-0.147,0.988,-0.017,0.854,1.465,-0.183,93.333,109422.000,1.000
9.183,15.189,9.758,5.520,9.482,12.482,8.473,7.552,-0.146,0.986,-0.014,0.763,1.404,-0.214,93.333,109423.000,1.000
7.985,16.388,10.003,5.813,11.720,15.884,10.706,9.572,-0.147,0.990,-0.016,0.763,1.465,-0.183,93.333,109424.000,1.000
6.219,17.302,9.101,5.296,12.727,19.119,13.895,11.018,-0.146,0.990,-0.013,0.763,1.434,-0.153,93.333,109425.000,1.000
4.528,17.933,7.790,4.534,13.439,22.501,17.498,12.497,-0.148,0.989,-0.013,0.793,1.373,-0.336,93.333,109426.000,1.000
3.378,18.104,6.882,4.159,14.922,26.273,20.592,14.610,-0.149,0.987,-0.014,0.732,1.373,-0.305,93.333,109427.000,1.000
3.155,17.717,6.314,3.926,15.874,28.550,22.045,15.873,-0.149,0.986,-0.012,0.732,1.312,-0.305,93.333,109428.000,1.000
3.989,16.909,5.746,3.437,14.656,27.379,21.370,14.803,-0.149,0.989,-0.014,0.824,1.251,-0.244,93.333,109429.000,1.000
5.459,15.858,5.419,3.120,12.196,23.651,19.096,12.557,-0.151,0.987,-0.016,0.763,1.312,-0.214,93.333,109430.000,1.000
6.764,14.600,5.588,3.548,10.342,19.714,16.074,11.129,-0.148,0.989,-0.014,0.885,1.251,-0.183,93.333,109431.000,1.000
7.351,13.168,5.678,4.320,8.702,16.094,12.773,10.203,-0.148,0.986,-0.014,0.854,1.221,-0.183,93.333,109432.000,1.000
7.226,11.798,4.964,4.632,5.889,11.939,9.509,8.344,-0.150,0.986,-0.015,0.763,1.129,-0.092,93.333,109433.000,1.000
6.605,10.779,3.706,4.490,2.745,7.814,6.769,6.169,-0.150,0.988,-0.011,0.732,1.190,-0.092,93.333,109434.000,1.000
5.661,10.132,2.698,4.432,1.333,5.255,4.781,5.509,-0.148,0.989,-0.010,0.824,1.190,-0.031,93.333,109435.000,1.000
4.760,9.654,2.107,4.457,1.481,3.895,3.219,6.185,-0.148,0.989,-0.012,0.824,1.160,-0.061,93.333,109436.000,1.000
4.484,9.280,1.694,4.302,1.287,1.788,1.814,6.482,-0.149,0.987,-0.013,0.885,1.129,-0.061,93.333,109437.000,1.000
5.174,9.245,1.857,4.517,0.718,-1.280,0.922,6.406,-0.147,0.987,-0.013,0.854,1.099,-0.061,93.333,109438.000,1.000
6.637,9.762,3.307,5.994,1.592,-3.518,0.907,7.462,-0.148,0.986,-0.013,0.854,1.068,0.000,93.333,109439.000,1.000
8.359,10.693,5.772,8.364,3.931,-4.439,1.291,9.283,-0.147,0.990,-0.013,0.824,1.007,0.061,93.333,109440.000,1.000
9.918,11.766,8.218,10.166,5.566,-5.603,1.274,9.634,-0.147,0.990,-0.013,0.916,1.038,0.153,93.333,109441.000,1.000
11.028,12.870,10.267,10.747,5.794,-7.485,0.787,8.114,-0.146,0.990,-0.012,0.885,1.099,0.061,93.333,109442.000,1.000
11.383,13.868,12.285,10.806,6.365,-8.334,0.359,6.897,-0.145,0.989,-0.015,0.732,1.007,0.122,93.333,109443.000,1.000
10.845,14.446,14.101,10.940,8.106,-7.183,0.232,7.153,-0.147,0.990,-0.015,0.763,1.007,0.183,93.333,109444.000,1.000
9.696,14.423,14.813,10.863,9.474,-5.577,0.323,7.534,-0.147,0.989,-0.012,0.732,1.038,0.092,93.333,109445.000,1.000
8.368,13.946,14.085,10.381,9.528,-4.988,0.794,7.126,-0.147,0.990,-0.012,0.732,1.038,0.183,93.333,109446.000,1.000
7.038,13.151,12.628,9.976,9.614,-4.690,1.889,7.166,-0.146,0.990,-0.013,0.671,0.977,0.244,93.333,109447.000,1.000
5.845,12.007,11.157,9.921,10.674,-3.694,3.367,8.508,-0.146,0.990,-0.015,0.702,0.977,0.153,93.333,109448.000,1.000
5.334,10.795,9.885,9.879,11.507,-2.641,4.871,9.987,-0.147,0.990,-0.011,0.610,0.946,0.122,93.333,109449.000,1.000
6.113,10.318,9.265,9.923,11.407,-1.916,6.713,10.924,-0.146,0.989,-0.012,0.610,0.977,0.183,93.333,109450.000,1.000
8.038,11.136,10.096,10.864,12.015,0.041,9.432,12.726,-0.147,0.988,-0.012,0.641,1.099,0.061,93.333,109451.000,1.000
10.084,12.799,12.193,12.792,14.390,4.262,12.483,16.030,-0.146,0.989,-0.010,0.702,1.190,0.031,93.333,109452.000,1.000
11.170,14.258,13.895,14.281,16.532,8.860,14.369,18.538,-0.143,0.991,-0.011,0.702,1.160,0.153,93.333,109453.000,1.000
10.871,14.832,13.686,13.936,16.181,11.378,14.289,17.971,-0.144,0.989,-0.012,0.702,1.129,0.000,93.333,109454.000,1.000
9.233,14.317,11.558,11.822,14.002,11.910,12.662,15.159,-0.145,0.988,-0.010,0.671,1.160,0.031,93.333,109455.000,1.000
6.371,12.496,8.212,8.568,11.617,11.722,9.968,11.997,-0.145,0.987,-0.011,0.671,1.251,0.092,93.333,109456.000,1.000
2.727,9.358,4.024,4.243,8.549,10.454,6.289,8.373,-0.144,0.988,-0.010,0.732,1.099,0.122,93.333,109457.000,1.000
-0.625,5.762,-0.306,-0.738,3.920,7.273,2.214,3.694,-0.144,0.989,-0.013,0.732,1.221,0.000,93.333,109458.000,1.000
-2.476,3.179,-3.048,-4.518,-0.378,3.724,-0.867,-0.206,-0.142,0.990,-0.011,0.854,1.160,0.061,93.333,109459.000,1.000
-2.387,2.637,-2.719,-5.086,-1.315,2.632,-1.830,-0.650,-0.143,0.989,-0.013,0.824,1.160,-0.031,93.333,109460.000,1.000
-0.984,4.131,0.209,-2.412,1.196,4.460,-0.616,2.156,-0.144,0.986,-0.011,0.916,1.221,-0.031,93.333,109461.000,1.000
0.554,6.874,3.785,1.704,4.603,7.157,2.184,5.653,-0.143,0.985,-0.009,1.007,1.251,-0.092,93.333,109462.000,1.000
1.271,9.778,6.529,5.611,7.553,9.467,5.921,8.654,-0.143,0.986,-0.011,0.946,1.282,-0.092,93.333,109463.000,1.000
0.960,11.798,8.050,8.612,10.525,11.860,9.709,11.812,-0.144,0.986,-0.010,0.977,1.312,-0.122,93.333,109464.000,1.000
0.240,12.300,8.188,10.140,12.864,13.991,12.225,14.564,-0.145,0.987,-0.009,0.946,1.343,-0.092,93.333,109465.000,1.000
0.078,11.340,6.812,9.661,12.538,14.072,12.486,14.821,-0.146,0.987,-0.008,1.068,1.312,-0.061,93.333,109466.000,1.000
0.946,9.520,4.622,7.757,9.535,11.730,10.821,12.358,-0.147,0.985,-0.008,1.038,1.404,-0.153,93.333,109467.000,1.000
2.466,7.579,2.998,6.041,6.510,9.037,8.400,9.585,-0.144,0.984,-0.013,1.068,1.434,-0.183,93.333,109468.000,1.000
3.921,6.101,2.578,5.407,4.980,7.524,5.922,7.952,-0.144,0.986,-0.013,1.129,1.343,-0.122,93.333,109469.000,1.000
4.874,5.357,2.722,5.272,3.509,6.269,3.359,6.252,-0.144,0.990,-0.013,1.129,1.312,-0.122,93.333,109470.000,1.000
5.153,5.137,2.649,4.905,0.765,4.088,0.732,3.595,-0.144,0.992,-0.011,1.129,1.282,-0.244,93.333,109471.000,1.000
4.560,4.689,2.188,4.463,-2.346,1.517,-1.639,1.368,-0.145,0.990,-0.010,1.221,1.312,-0.244,93.333,109472.000,1.000
2.951,3.101,1.076,4.098,-5.027,-0.873,-3.706,0.684,-0.144,0.991,-0.010,1.190,1.282,-0.183,93.333,109473.000,1.000
0.559,0.017,-1.327,3.174,-8.447,-4.130,-5.779,0.292,-0.145,0.990,-0.009,1.038,1.282,-0.214,93.333,109474.000,1.000
-2.023,-3.980,-4.885,1.328,-13.191,-8.802,-7.791,-1.011,-0.144,0.988,-0.012,1.038,1.312,-0.214,93.333,109475.000,1.000
-4.176,-7.754,-8.121,-0.496,-17.061,-12.874,-8.985,-1.909,-0.143,0.988,-0.008,1.038,1.343,-0.244,93.333,109476.000,1.000
-5.497,-10.433,-9.701,-1.164,-17.854,-14.202,-8.735,-0.806,-0.146,0.987,-0.009,1.099,1.251,-0.214,93.333,109477.000,1.000
-5.905,-11.915,-9.908,-0.916,-16.672,-13.732,-7.370,1.155,-0.147,0.988,-0.011,1.068,1.251,-0.305,93.333,109478.000,1.000
-5.682,-12.561,-9.793,-0.693,-15.889,-13.777,-5.699,1.903,-0.146,0.988,-0.013,1.190,1.221,-0.458,93.333,109479.000,1.000
-5.376,-12.646,-9.585,-0.535,-15.381,-14.308,-4.060,1.866,-0.150,0.990,-0.013,1.068,1.190,-0.458,93.333,109480.000,1.000
-5.593,-12.422,-9.117,-0.064,-13.752,-13.744,-2.473,2.703,-0.149,0.987,-0.012,1.160,1.221,-0.397,93.333,109481.000,1.000
-6.688,-12.258,-9.013,0.098,-11.775,-12.238,-1.166,3.959,-0.149,0.987,-0.010,1.099,1.099,-0.488,93.333,109482.000,1.000
-8.461,-12.190,-9.961,-0.937,-11.222,-11.088,-0.070,4.139,-0.149,0.985,-0.013,1.068,0.977,-0.580,93.333,109483.000,1.000
-10.195,-11.631,-11.238,-2.613,-11.307,-9.664,1.600,4.071,-0.146,0.986,-0.013,1.007,0.946,-0.580,93.333,109484.000,1.000
-11.094,-9.971,-11.383,-3.513,-9.678,-6.056,4.381,5.834,-0.146,0.986,-0.014,1.068,0.946,-0.580,93.333,109485.000,1.000
-10.745,-7.266,-10.136,-3.362,-6.386,-0.517,7.707,9.020,-0.147,0.986,-0.014,1.160,1.007,-0.488,93.333,109486.000,1.000
-9.303,-4.127,-8.498,-3.060,-3.677,4.569,10.662,11.233,-0.146,0.986,-0.014,1.251,1.007,-0.458,93.333,109487.000,1.000
-7.486,-1.295,-7.182,-3.006,-2.258,8.096,12.961,11.938,-0.146,0.989,-0.017,1.251,0.977,-0.427,93.333,109488.000,1.000
-6.262,0.520,-6.240,-2.782,-0.907,10.952,14.622,12.702,-0.146,0.989,-0.015,1.282,1.068,-0.275,93.333,109489.000,1.000
-6.127,0.897,-5.919,-2.373,0.352,13.263,15.308,13.728,-0.146,0.989,-0.012,1.312,1.068,-0.305,93.333,109490.000,1.000
-6.627,0.154,-6.497,-2.303,-0.111,13.696,14.704,13.303,-0.145,0.991,-0.017,1.282,1.068,-0.214,93.333,109491.000,1.000
-6.809,-0.758,-7.271,-2.376,-2.258,12.142,13.186,11.161,-0.147,0.992,-0.015,1.373,1.160,-0.214,93.333,109492.000,1.000
-6.059,-1.091,-6.923,-1.522,-3.761,10.528,11.399,9.350,-0.148,0.991,-0.012,1.373,1.007,-0.153,93.333,109493.000,1.000
-4.340,-0.861,-5.134,0.672,-3.510,9.849,9.412,8.863,-0.151,0.990,-0.010,1.343,0.916,-0.275,93.333,109494.000,1.000
-1.943,-0.504,-2.916,3.313,-3.074,8.747,6.941,8.174,-0.151,0.992,-0.010,1.251,0.793,-0.275,93.333,109495.000,1.000
0.558,-0.330,-1.154,5.485,-3.569,6.307,4.198,6.266,-0.149,0.993,-0.010,1.160,0.793,-0.519,93.333,109496.000,1.000
2.359,-0.478,0.225,7.176,-3.769,3.872,1.750,4.474,-0.149,0.995,-0.012,1.190,0.641,-0.549,93.333,109497.000,1.000
2.899,-1.008,1.392,8.448,-2.797,2.628,-0.334,3.801,-0.151,0.993,-0.010,1.099,0.641,-0.641,93.333,109498.000,1.000
2.311,-1.647,2.048,8.820,-2.047,1.731,-2.338,2.991,-0.149,0.990,-0.012,0.916,0.488,-0.610,93.333,109499.000,1.000
1.180,-1.854,2.155,8.215,-2.702,0.430,-4.094,1.009,-0.148,0.988,-0.013,0.946,0.549,-0.671,93.333,109500.000,1.000
0.037,-1.652,2.128,7.407,-3.857,-0.234,-5.360,-1.035,-0.145,0.987,-0.012,1.007,0.610,-0.671,93.333,109501.000,1.000
-0.699,-2.001,1.855,6.829,-4.904,0.351,-6.738,-2.262,-0.143,0.987,-0.012,1.068,0.641,-0.641,93.333,109502.000,1.000
-0.486,-3.739,0.576,5.920,-7.352,0.479,-9.121,-4.010,-0.144,0.988,-0.012,1.068,0.671,-0.610,93.333,109503.000,1.000
1.181,-6.476,-1.712,4.377,-12.082,-1.415,-12.284,-7.340,-0.143,0.987,-0.014,1.099,0.732,-0.458,93.333,109504.000,1.000
4.202,-9.004,-3.654,3.121,-16.732,-3.910,-14.847,-10.404,-0.146,0.985,-0.012,1.129,0.732,-0.427,93.333,109505.000,1.000
7.653,-10.566,-4.109,3.067,-18.393,-4.559,-15.789,-10.831,-0.145,0.986,-0.015,1.190,0.763,-0.397,93.333,109506.000,1.000
10.452,-11.237,-3.566,3.681,-17.522,-3.548,-15.394,-9.361,-0.143,0.986,-0.013,1.190,0.854,-0.366,93.333,109507.000,1.000
12.141,-11.253,-3.142,3.789,-16.568,-2.852,-14.450,-8.417,-0.145,0.987,-0.011,1.282,0.977,-0.366,93.333,109508.000,1.000
12.754,-10.661,-2.978,3.191,-15.961,-2.651,-13.246,-8.246,-0.146,0.988,-0.010,1.373,1.068,-0.397,93.333,109509.000,1.000
12.367,-9.592,-2.550,2.500,-14.329,-1.314,-11.683,-7.258,-0.148,0.989,-0.015,1.373,1.038,-0.305,93.333,109510.000,1.000
11.289,-8.197,-1.798,2.044,-11.697,1.510,-9.669,-5.255,-0.148,0.988,-0.016,1.434,1.038,-0.275,93.333,109511.000,1.000
10.268,-6.337,-0.904,1.981,-9.416,4.432,-7.018,-3.381,-0.146,0.988,-0.013,1.373,1.099,-0.336,93.333,109512.000,1.000
10.043,-3.781,0.578,3.156,-7.194,7.024,-3.398,-1.241,-0.149,0.987,-0.012,1.343,1.068,-0.366,93.333,109513.000,1.000
10.810,-0.725,3.275,6.506,-3.290,10.419,1.143,2.892,-0.148,0.989,-0.011,1.251,1.068,-0.275,93.333,109514.000,1.000
12.184,2.084,6.656,11.369,1.980,14.538,5.701,8.629,-0.148,0.989,-0.009,1.190,1.068,-0.305,93.333,109515.000,1.000
13.557,3.924,9.276,15.630,5.987,17.368,9.200,13.251,-0.149,0.988,-0.013,1.129,1.129,-0.305,93.333,109516.000,1.000
14.465,4.800,10.629,18.060,7.825,18.173,11.600,15.720,-0.149,0.988,-0.013,1.099,1.190,-0.366,93.333,109517.000,1.000
14.683,5.299,11.596,19.245,9.484,18.789,13.649,17.812,-0.149,0.988,-0.011,1.099,1.129,-0.366,93.333,109518.000,1.000
14.208,5.836,12.764,19.912,12.030,20.420,15.534,20.374,-0.147,0.985,-0.012,1.007,1.099,-0.366,93.333,109519.000,1.000
13.302,6.463,13.638,19.907,13.825,21.781,16.772,21.752,-0.146,0.987,-0.013,1.007,1.129,-0.397,93.333,109520.000,1.000
12.286,7.141,13.799,19.236,13.750,21.752,17.216,21.068,-0.147,0.988,-0.009,1.038,1.160,-0.397,93.333,109521.000,1.000
11.146,7.629,13.519,18.510,13.105,21.299,17.095,19.869,-0.147,0.987,-0.012,1.007,1.099,-0.397,93.333,109522.000,1.000
9.678,7.386,12.894,17.818,12.802,21.182,16.243,19.067,-0.146,0.989,-0.010,1.007,1.221,-0.397,93.333,109523.000,1.000
8.067,6.121,11.583,16.457,11.479,20.158,14.302,17.083,-0.145,0.989,-0.009,0.977,1.160,-0.366,93.333,109524.000,1.000
6.848,4.241,9.833,14.339,8.245,17.316,11.622,12.808,-0.146,0.990,-0.010,0.977,1.221,-0.275,93.333,109525.000,1.000
6.239,2.383,8.704,12.554,4.896,14.156,9.098,7.936,-0.147,0.990,-0.012,0.946,1.221,-0.305,93.333,109526.000,1.000
6.019,0.788,8.700,11.910,3.312,12.410,7.182,4.458,-0.149,0.989,-0.012,0.916,1.312,-0.244,93.333,109527.000,1.000
6.117,-0.532,9.062,11.874,2.687,11.552,5.796,1.942,-0.148,0.990,-0.014,0.885,1.221,-0.153,93.333,109528.000,1.000
6.744,-1.414,8.968,11.591,1.533,10.459,5.155,-0.624,-0.149,0.988,-0.011,0.824,1.221,-0.183,93.333,109529.000,1.000
7.769,-1.765,8.578,11.085,0.612,9.982,5.863,-2.199,-0.148,0.987,-0.013,0.763,1.312,-0.153,93.333,109530.000,1.000
8.514,-1.931,8.258,10.661,1.330,11.483,7.978,-1.357,-0.148,0.987,-0.012,0.763,1.282,-0.214,93.333,109531.000,1.000
8.357,-2.482,7.517,9.825,2.570,13.841,10.556,0.709,-0.148,0.989,-0.012,0.793,1.312,-0.153,93.333,109532.000,1.000
7.206,-3.658,5.633,7.891,1.982,14.538,12.497,1.589,-0.150,0.991,-0.012,0.854,1.312,-0.244,93.333,109533.000,1.000
5.228,-5.266,2.834,5.235,-0.394,13.241,13.426,1.202,-0.149,0.990,-0.010,0.885,1.251,-0.183,93.333,109534.000,1.000
2.437,-7.169,-0.197,2.754,-2.694,11.696,13.335,1.113,-0.150,0.989,-0.008,0.916,1.190,-0.214,93.333,109535.000,1.000
-1.129,-9.512,-3.541,0.389,-4.751,10.390,11.931,1.034,-0.149,0.988,-0.012,1.007,1.160,-0.275,93.333,109536.000,1.000
-5.058,-12.348,-7.630,-2.543,-7.959,8.068,9.056,-0.855,-0.149,0.986,-0.012,1.007,1.038,-0.305,93.333,109537.000,1.000
-8.796,-15.429,-11.935,-5.807,-11.916,4.583,5.341,-4.368,-0.150,0.987,-0.013,1.099,1.068,-0.336,93.333,109538.000,1.000
-12.051,-18.453,-15.206,-8.297,-14.374,1.414,1.656,-7.269,-0.150,0.986,-0.013,1.190,1.007,-0.366,93.333,109539.000,1.000
-14.544,-21.023,-16.822,-9.512,-14.728,-1.019,-1.748,-8.875,-0.150,0.985,-0.011,1.221,0.977,-0.336,93.333,109540.000,1.000
-15.600,-22.371,-16.887,-9.763,-14.571,-3.886,-4.899,-10.650,-0.148,0.985,-0.010,1.282,0.977,-0.305,93.333,109541.000,1.000
-14.639,-21.691,-15.215,-8.964,-14.312,-7.174,-7.282,-12.792,-0.150,0.985,-0.012,1.373,1.038,-0.305,93.333,109542.000,1.000
-12.101,-19.003,-11.472,-6.503,-12.319,-8.975,-8.184,-13.266,-0.151,0.985,-0.014,1.526,0.977,-0.275,93.333,109543.000,1.000
-9.338,-15.476,-6.575,-2.685,-8.492,-8.744,-7.861,-11.366,-0.149,0.985,-0.013,1.617,0.946,-0.275,93.333,109544.000,1.000
-7.354,-12.630,-2.623,0.936,-5.670,-8.902,-7.642,-9.486,-0.149,0.985,-0.013,1.709,0.916,-0.122,93.333,109545.000,1.000
-5.971,-11.139,-0.694,3.369,-5.682,-11.430,-8.497,-9.632,-0.146,0.987,-0.013,1.801,1.038,-0.183,93.333,109546.000,1.000
-4.518,-10.651,0.119,5.130,-6.787,-15.066,-10.198,-10.758,-0.145,0.985,-0.011,1.801,1.007,-0.244,93.333,109547.000,1.000
-2.874,-10.740,0.793,6.694,-7.062,-17.903,-12.273,-11.459,-0.147,0.985,-0.013,1.831,1.007,-0.244,93.333,109548.000,1.000
-1.361,-11.363,0.978,7.453,-7.410,-20.397,-14.650,-12.492,-0.145,0.986,-0.015,2.014,1.099,-0.153,93.333,109549.000,1.000
-0.092,-12.336,0.295,7.126,-8.913,-23.379,-16.849,-14.337,-0.146,0.986,-0.015,2.014,1.160,-0.061,93.333,109550.000,1.000
0.948,-13.174,-0.497,6.762,-10.021,-25.299,-17.747,-14.954,-0.143,0.988,-0.014,2.045,1.251,-0.122,93.333,109551.000,1.000
1.545,-13.631,-0.644,7.259,-9.034,-24.279,-16.793,-12.628,-0.144,0.989,-0.015,2.075,1.160,-0.275,93.333,109552.000,1.000
1.522,-13.859,-0.562,8.026,-7.129,-21.282,-14.600,-8.968,-0.144,0.989,-0.014,2.045,1.160,-0.214,93.333,109553.000,1.000
1.105,-14.073,-0.852,8.169,-6.269,-18.654,-12.060,-6.577,-0.146,0.989,-0.014,2.045,1.343,-0.275,93.333,109554.000,1.000
0.711,-14.359,-1.025,8.073,-5.849,-16.728,-9.575,-5.385,-0.148,0.989,-0.021,2.014,1.251,-0.336,93.333,109555.000,1.000
0.647,-14.655,-0.195,8.691,-4.038,-14.296,-7.238,-3.710,-0.147,0.989,-0.016,1.923,1.312,-0.275,93.333,109556.000,1.000
1.071,-14.696,1.528,9.920,-1.167,-11.514,-5.121,-1.586,-0.146,0.989,-0.015,1.923,1.343,-0.275,93.333,109557.000,1.000
1.946,-14.087,3.328,10.861,0.984,-9.693,-3.134,-0.338,-0.147,0.989,-0.016,1.862,1.343,-0.305,93.333,109558.000,1.000
2.927,-12.603,4.975,11.333,2.447,-8.616,-1.023,0.303,-0.148,0.991,-0.018,1.770,1.373,-0.305,93.333,109559.000,1.000
3.408,-10.550,6.644,11.796,4.610,-6.810,1.090,1.669,-0.149,0.990,-0.019,1.709,1.434,-0.366,93.333,109560.000,1.000
2.941,-8.668,7.825,12.004,7.002,-4.439,2.473,3.112,-0.148,0.990,-0.018,1.587,1.434,-0.305,93.333,109561.000,1.000
1.669,-7.432,7.784,11.225,7.727,-3.192,2.642,2.644,-0.148,0.990,-0.017,1.587,1.465,-0.153,93.333,109562.000,1.000
0.123,-6.689,6.931,9.692,6.985,-3.146,2.136,0.574,-0.148,0.990,-0.018,1.495,1.465,-0.214,93.333,109563.000,1.000
-1.359,-6.155,6.408,8.420,7.020,-2.507,1.823,-0.606,-0.149,0.991,-0.016,1.373,1.465,-0.244,93.333,109564.000,1.000
-2.753,-5.831,6.422,7.640,8.390,-0.837,1.822,-0.117,-0.148,0.987,-0.017,1.251,1.495,-0.153,93.333,109565.000,1.000
-4.016,-5.694,6.197,6.693,9.342,0.243,1.773,0.347,-0.147,0.986,-0.016,1.099,1.434,-0.214,93.333,109566.000,1.000
-5.011,-5.376,5.506,5.541,9.321,0.267,1.837,0.084,-0.147,0.983,-0.017,1.099,1.526,-0.183,93.333,109567.000,1.000
-5.683,-4.501,5.012,5.030,9.963,1.124,2.547,0.471,-0.146,0.982,-0.019,1.190,1.495,-0.153,93.333,109568.000,1.000
-6.094,-3.220,4.892,5.315,11.699,3.886,3.729,1.769,-0.145,0.983,-0.021,1.282,1.587,-0.122,93.333,109569.000,1.000
-6.423,-2.166,4.259,5.233,12.313,6.820,4.436,1.848,-0.146,0.984,-0.023,1.251,1.648,0.000,93.333,109570.000,1.000
-7.130,-1.975,2.383,3.808,10.298,8.015,4.059,-0.483,-0.147,0.986,-0.019,1.373,1.678,0.000,93.333,109571.000,1.000
-8.864,-2.999,-0.437,1.356,7.058,7.872,2.778,-3.454,-0.149,0.985,-0.020,1.282,1.648,0.092,93.333,109572.000,1.000
-11.899,-5.328,-3.708,-1.506,4.085,7.238,0.851,-5.331,-0.149,0.987,-0.018,1.282,1.678,0.092,93.333,109573.000,1.000
-15.872,-8.838,-7.638,-5.016,0.313,5.042,-1.840,-7.115,-0.147,0.986,-0.021,1.221,1.617,0.183,93.333,109574.000,1.000
-20.176,-13.160,-12.424,-9.505,-5.529,0.080,-5.274,-10.272,-0.149,0.985,-0.020,1.282,1.617,0.122,93.333,109575.000,1.000
-24.404,-17.765,-17.376,-14.334,-12.034,-6.360,-8.908,-13.891,-0.152,0.990,-0.018,1.282,1.587,-0.031,93.333,109576.000,1.000
-28.190,-22.145,-21.572,-18.548,-16.977,-12.057,-12.124,-16.344,-0.154,0.993,-0.019,1.129,1.495,-0.092,93.333,109577.000,1.000
-30.730,-25.673,-24.605,-21.722,-20.195,-16.650,-14.474,-17.849,-0.155,0.996,-0.020,0.854,1.465,-0.153,93.333,109578.000,1.000
-31.029,-27.545,-26.067,-23.385,-22.273,-20.641,-15.389,-19.018,-0.151,0.997,-0.021,0.641,1.343,-0.214,93.333,109579.000,1.000
-28.962,-27.430,-25.330,-22.726,-22.222,-23.160,-14.482,-18.682,-0.148,0.997,-0.018,0.519,1.251,-0.153,93.333,109580.000,1.000
-25.662,-26.037,-22.664,-19.848,-19.201,-23.317,-12.411,-15.781,-0.147,0.995,-0.018,0.397,1.190,-0.122,93.333,109581.000,1.000
-22.593,-24.561,-19.788,-16.545,-15.211,-22.694,-10.728,-12.142,-0.146,0.991,-0.021,0.183,1.160,-0.153,93.333,109582.000,1.000
-20.432,-23.594,-18.262,-14.671,-13.094,-23.760,-10.441,-10.575,-0.146,0.988,-0.020,0.244,1.099,-0.092,93.333,109583.000,1.000
-18.944,-22.902,-17.773,-14.160,-12.640,-26.320,-11.157,-10.977,-0.148,0.987,-0.019,0.214,1.007,-0.061,93.333,109584.000,1.000
-17.650,-22.263,-17.034,-13.756,-11.686,-28.193,-12.116,-11.207,-0.147,0.987,-0.019,0.214,1.007,0.000,93.333,109585.000,1.000
-16.318,-21.927,-15.824,-13.190,-10.316,-29.011,-13.477,-11.210,-0.147,0.987,-0.018,0.183,0.977,0.000,93.333,109586.000,1.000
-14.966,-22.060,-14.929,-13.299,-10.664,-30.447,-15.805,-13.002,-0.146,0.990,-0.018,0.183,0.977,-0.061,93.333,109587.000,1.000
-13.878,-22.333,-14.595,-14.326,-12.899,-32.727,-18.826,-16.734,-0.146,0.990,-0.018,0.153,1.007,-0.031,93.333,109588.000,1.000
-13.459,-22.267,-14.359,-15.546,-14.696,-33.810,-21.579,-20.122,-0.148,0.990,-0.016,0.153,0.916,0.000,93.333,109589.000,1.000
-13.668,-21.466,-14.087,-16.464,-14.796,-32.486,-23.367,-21.951,-0.149,0.988,-0.015,0.122,0.977,-0.061,93.333,109590.000,1.000
-13.911,-19.581,-14.025,-17.206,-14.200,-29.892,-23.983,-23.173,-0.150,0.988,-0.014,0.000,0.854,-0.031,93.333,109591.000,1.000
-13.780,-16.609,-13.935,-17.642,-13.491,-27.334,-23.513,-24.174,-0.150,0.989,-0.016,0.061,0.824,0.031,93.333,109592.000,1.000
-13.483,-13.214,-13.137,-17.179,-11.775,-24.747,-22.379,-23.741,-0.149,0.989,-0.017,-0.031,0.763,-0.031,93.333,109593.000,1.000
-13.301,-10.412,-11.567,-15.807,-9.179,-22.326,-21.280,-21.654,-0.149,0.989,-0.014,-0.031,0.702,-0.061,93.333,109594.000,1.000
-12.904,-8.737,-9.838,-14.293,-7.636,-21.418,-20.536,-19.633,-0.149,0.992,-0.015,-0.061,0.610,-0.183,93.333,109595.000,1.000
-11.563,-7.796,-7.982,-12.842,-7.737,-22.157,-19.595,-18.444,-0.150,0.991,-0.014,-0.122,0.671,-0.122,93.333,109596.000,1.000
-9.100,-6.914,-5.387,-10.830,-7.457,-22.277,-17.811,-16.645,-0.150,0.991,-0.015,-0.153,0.610,-0.092,93.333,109597.000,1.000
-6.315,-6.148,-2.462,-8.487,-5.713,-20.319,-15.687,-13.736,-0.148,0.990,-0.017,-0.092,0.549,-0.092,93.333,109598.000,1.000
-4.288,-6.159,-0.962,-7.399,-4.545,-18.047,-14.533,-11.936,-0.146,0.990,-0.013,-0.092,0.458,-0.092,93.333,109599.000,1.000
-3.533,-7.089,-1.847,-8.451,-5.667,-17.527,-14.762,-12.834,-0.146,0.989,-0.015,-0.122,0.427,-0.153,93.333,109600.000,1.000
-4.037,-8.302,-4.067,-10.595,-7.424,-17.788,-15.375,-14.655,-0.147,0.989,-0.013,-0.183,0.519,-0.092,93.333,109601.000,1.000
-5.673,-9.276,-6.241,-12.499,-7.570,-16.758,-15.403,-15.079,-0.146,0.990,-0.017,-0.122,0.549,0.000,93.333,109602.000,1.000
-8.082,-10.019,-8.232,-14.122,-6.776,-14.708,-14.881,-14.615,-0.146,0.992,-0.012,-0.122,0.488,0.000,93.333,109603.000,1.000
-10.543,-10.639,-10.308,-15.814,-6.848,-13.242,-14.177,-14.859,-0.146,0.990,-0.010,-0.122,0.519,0.031,93.333,109604.000,1.000
-12.433,-11.236,-12.015,-17.132,-7.420,-12.343,-13.372,-15.352,-0.145,0.990,-0.011,-0.061,0.641,0.092,93.333,109605.000,1.000
-13.509,-12.076,-12.849,-17.582,-7.157,-11.038,-12.653,-14.763,-0.145,0.987,-0.010,0.031,0.549,0.061,93.333,109606.000,1.000
-13.659,-13.303,-13.284,-17.742,-6.761,-9.967,-12.489,-13.807,-0.145,0.987,-0.010,0.000,0.580,0.122,93.333,109607.000,1.000
-12.868,-14.574,-14.123,-18.552,-7.841,-10.556,-12.883,-14.096,-0.145,0.988,-0.010,0.092,0.641,0.183,93.333,109608.000,1.000
-11.593,-15.291,-15.282,-19.946,-9.667,-12.109,-13.008,-14.957,-0.147,0.986,-0.012,0.061,0.580,0.122,93.333,109609.000,1.000
-10.825,-15.280,-16.241,-21.306,-10.224,-12.534,-12.324,-14.489,-0.147,0.986,-0.012,0.092,0.549,0.061,93.333,109610.000,1.000
-11.442,-14.984,-17.304,-22.871,-9.947,-11.812,-11.559,-13.248,-0.145,0.987,-0.009,0.214,0.671,-0.031,93.333,109611.000,1.000
-13.476,-14.771,-19.085,-25.314,-11.066,-11.825,-11.675,-13.578,-0.145,0.988,-0.008,0.244,0.641,0.000,93.333,109612.000,1.000
-16.182,-14.436,-21.038,-28.124,-13.467,-12.728,-12.429,-15.467,-0.144,0.988,-0.008,0.366,0.671,-0.092,93.333,109613.000,1.000
-18.687,-13.621,-21.861,-29.925,-14.585,-12.515,-12.861,-16.412,-0.144,0.988,-0.008,0.275,0.732,-0.061,93.333,109614.000,1.000
-20.302,-12.241,-21.227,-30.323,-13.496,-10.547,-12.514,-15.460,-0.143,0.988,-0.006,0.305,0.854,-0.031,93.333,109615.000,1.000
-20.526,-10.361,-19.971,-30.127,-12.055,-8.763,-11.514,-14.267,-0.144,0.988,-0.006,0.366,0.854,-0.061,93.333,109616.000,1.000
-19.304,-8.157,-18.657,-29.708,-11.476,-8.619,-10.126,-13.791,-0.145,0.987,-0.009,0.366,0.885,-0.153,93.333,109617.000,1.000
-17.206,-6.103,-17.139,-28.490,-10.733,-9.176,-8.790,-12.903,-0.143,0.989,-0.008,0.488,0.946,-0.122,93.333,109618.000,1.000
-15.044,-4.875,-15.615,-26.335,-9.344,-9.377,-8.184,-11.144,-0.143,0.989,-0.010,0.549,0.916,-0.183,93.333,109619.000,1.000
-13.277,-4.739,-14.816,-24.085,-8.816,-9.818,-8.582,-9.993,-0.142,0.987,-0.009,0.549,0.946,-0.183,93.333,109620.000,1.000
-11.890,-5.123,-14.670,-22.187,-9.647,-10.664,-9.164,-9.961,-0.141,0.989,-0.010,0.641,0.946,-0.214,93.333,109621.000,1.000
-10.776,-5.156,-14.037,-20.012,-9.724,-10.163,-8.688,-9.095,-0.143,0.988,-0.007,0.671,1.068,-0.275,93.333,109622.000,1.000
-9.994,-4.550,-12.376,-17.251,-7.632,-7.261,-6.909,-6.152,-0.144,0.988,-0.008,0.641,1.099,-0.275,93.333,109623.000,1.000
-9.581,-3.624,-10.611,-14.811,-5.046,-3.754,-4.642,-2.829,-0.142,0.988,-0.008,0.671,1.068,-0.244,93.333,109624.000,1.000
-9.443,-2.691,-9.728,-13.518,-3.794,-1.826,-2.475,-0.860,-0.142,0.988,-0.008,0.702,1.160,-0.366,93.333,109625.000,1.000
-9.525,-1.855,-9.567,-12.933,-2.938,-1.105,-0.300,0.765,-0.146,0.988,-0.007,0.671,1.129,-0.427,93.333,109626.000,1.000
-9.766,-1.251,-9.644,-12.392,-1.108,-0.276,1.795,3.411,-0.144,0.986,-0.008,0.916,1.160,-0.488,93.333,109627.000,1.000
-9.828,-1.062,-10.201,-12.280,0.396,-0.016,3.033,5.688,-0.143,0.986,-0.008,0.946,1.129,-0.427,93.333,109628.000,1.000
-9.149,-1.135,-11.345,-13.086,-0.307,-1.654,2.919,5.564,-0.144,0.987,-0.007,0.977,1.099,-0.458,93.333,109629.000,1.000
-7.389,-0.877,-11.976,-13.986,-2.069,-4.032,2.079,4.000,-0.144,0.986,-0.006,1.007,1.099,-0.549,93.333,109630.000,1.000
-4.844,0.156,-10.908,-13.885,-2.347,-4.718,1.383,3.416,-0.145,0.986,-0.006,1.068,1.038,-0.610,93.333,109631.000,1.000
-2.313,1.724,-8.609,-13.234,-1.324,-3.764,0.695,3.649,-0.146,0.986,-0.007,1.160,1.099,-0.427,93.333,109632.000,1.000
-0.534,3.160,-6.540,-13.253,-1.239,-3.457,-0.694,2.635,-0.145,0.987,-0.007,1.190,1.007,-0.397,93.333,109633.000,1.000
0.202,3.917,-5.222,-13.847,-2.426,-4.700,-2.893,0.280,-0.146,0.985,-0.009,1.312,0.977,-0.458,93.333,109634.000,1.000
0.009,3.708,-4.168,-13.832,-3.295,-6.397,-5.497,-1.647,-0.147,0.988,-0.006,1.312,0.916,-0.488,93.333,109635.000,1.000
-0.599,2.599,-3.230,-12.797,-3.690,-8.131,-8.206,-2.898,-0.148,0.988,-0.007,1.404,0.854,-0.427,93.333,109636.000,1.000
-0.758,1.241,-2.644,-11.311,-4.936,-10.574,-10.548,-4.734,-0.147,0.988,-0.006,1.465,0.824,-0.458,93.333,109637.000,1.000
0.043,0.464,-2.149,-9.710,-6.724,-13.149,-11.767,-6.883,-0.147,0.987,-0.008,1.495,0.763,-0.427,93.333,109638.000,1.000
1.215,0.331,-1.390,-8.117,-7.219,-14.132,-11.829,-7.714,-0.146,0.989,-0.007,1.495,0.793,-0.427,93.333,109639.000,1.000
1.617,0.043,-0.938,-7.349,-6.502,-13.607,-11.920,-7.541,-0.147,0.987,-0.010,1.495,0.763,-0.427,93.333,109640.000,1.000
0.906,-0.998,-1.663,-8.316,-6.785,-13.787,-13.173,-8.621,-0.147,0.990,-0.010,1.556,0.763,-0.397,93.333,109641.000,1.000
-0.138,-2.468,-3.170,-10.407,-8.624,-15.606,-15.307,-11.352,-0.148,0.989,-0.009,1.495,0.702,-0.366,93.333,109642.000,1.000
-0.604,-3.713,-4.051,-11.774,-9.899,-17.415,-17.118,-13.333,-0.147,0.989,-0.013,1.526,0.580,-0.458,93.333,109643.000,1.000
-0.281,-4.630,-3.796,-11.436,-9.479,-18.002,-17.860,-13.059,-0.147,0.989,-0.013,1.587,0.641,-0.366,93.333,109644.000,1.000
0.549,-5.547,-3.288,-10.002,-8.983,-18.476,-17.541,-11.839,-0.147,0.989,-0.009,1.465,0.549,-0.427,93.333,109645.000,1.000
1.591,-6.553,-3.201,-8.179,-9.673,-19.871,-16.375,-11.005,-0.146,0.990,-0.010,1.434,0.580,-0.397,93.333,109646.000,1.000
2.500,-7.486,-3.202,-5.958,-10.387,-21.146,-14.749,-9.897,-0.145,0.992,-0.013,1.343,0.488,-0.336,93.333,109647.000,1.000
2.832,-8.360,-3.134,-3.727,-10.195,-21.249,-13.515,-8.120,-0.145,0.990,-0.017,1.343,0.488,-0.366,93.333,109648.000,1.000
2.498,-9.187,-3.646,-2.757,-10.434,-21.124,-13.459,-7.320,-0.145,0.990,-0.011,1.373,0.580,-0.427,93.333,109649.000,1.000
2.000,-9.584,-4.950,-3.652,-12.066,-21.729,-14.359,-8.683,-0.143,0.989,-0.011,1.312,0.610,-0.488,93.333,109650.000,1.000
1.819,-9.127,-6.077,-5.374,-13.314,-21.894,-15.195,-10.592,-0.144,0.988,-0.013,1.312,0.488,-0.580,93.333,109651.000,1.000
1.885,-7.926,-6.156,-6.663,-12.184,-20.204,-15.302,-10.950,-0.143,0.989,-0.012,1.282,0.549,-0.610,93.333,109652.000,1.000
1.908,-6.435,-5.539,-7.533,-9.569,-17.547,-14.750,-10.238,-0.146,0.988,-0.010,1.282,0.641,-0.702,93.333,109653.000,1.000
1.838,-4.878,-4.874,-8.432,-7.442,-15.564,-13.570,-9.879,-0.146,0.990,-0.013,1.282,0.732,-0.671,93.333,109654.000,1.000
1.688,-3.302,-3.952,-8.926,-5.605,-13.840,-11.543,-9.190,-0.144,0.990,-0.016,1.190,0.732,-0.732,93.333,109655.000,1.000
1.180,-2.059,-2.524,-8.527,-2.975,-11.123,-9.100,-6.879,-0.145,0.990,-0.014,1.221,0.763,-0.824,93.333,109656.000,1.000
0.138,-1.605,-1.345,-7.994,-0.646,-8.275,-7.425,-4.204,-0.145,0.989,-0.016,1.251,0.763,-0.885,93.333,109657.000,1.000
-0.872,-1.659,-1.148,-8.323,-0.457,-7.234,-7.026,-3.467,-0.142,0.989,-0.014,1.343,0.824,-0.885,93.333,109658.000,1.000
-0.847,-1.208,-1.238,-9.059,-1.423,-7.638,-6.982,-4.238,-0.144,0.990,-0.014,1.251,0.916,-0.854,93.333,109659.000,1.000
0.639,0.413,-0.368,-9.019,-0.868,-7.251,-6.157,-4.111,-0.145,0.989,-0.013,1.221,1.007,-0.885,93.333,109660.000,1.000
3.042,2.917,1.466,-8.199,1.304,-5.616,-4.645,-2.758,-0.146,0.988,-0.013,1.190,0.977,-0.824,93.333,109661.000,1.000
5.436,5.644,3.299,-7.597,2.624,-4.567,-3.548,-2.202,-0.148,0.986,-0.012,1.099,1.068,-0.885,93.333,109662.000,1.000
7.093,8.163,4.826,-7.480,2.235,-4.928,-3.620,-3.139,-0.147,0.987,-0.014,1.160,1.007,-0.824,93.333,109663.000,1.000
7.622,10.181,6.483,-7.224,1.855,-5.385,-4.719,-4.037,-0.147,0.986,-0.014,1.160,0.946,-0.854,93.333,109664.000,1.000
7.080,11.391,8.133,-6.716,2.230,-5.269,-6.443,-4.303,-0.148,0.987,-0.012,1.160,1.007,-0.854,93.333,109665.000,1.000
6.144,11.778,9.112,-6.450,1.962,-5.760,-8.412,-5.183,-0.150,0.987,-0.011,1.129,0.885,-0.763,93.333,109666.000,1.000
5.818,11.824,9.634,-6.144,0.720,-7.268,-9.966,-6.716,-0.151,0.989,-0.013,1.099,0.977,-0.793,93.333,109667.000,1.000
6.672,11.950,10.729,-4.800,0.337,-8.223,-10.612,-6.943,-0.151,0.989,-0.013,1.068,0.854,-0.763,93.333,109668.000,1.000
8.508,11.963,12.527,-2.423,1.465,-7.787,-10.680,-5.228,-0.151,0.989,-0.012,0.977,0.946,-0.549,93.333,109669.000,1.000
10.680,11.356,13.821,-0.387,2.029,-7.454,-10.766,-3.553,-0.151,0.990,-0.011,1.038,1.038,-0.488,93.333,109670.000,1.000
12.343,9.817,13.579,0.216,0.449,-8.517,-10.905,-3.376,-0.150,0.991,-0.010,1.038,0.977,-0.488,93.333,109671.000,1.000
12.699,7.347,12.000,-0.289,-2.020,-9.921,-10.823,-3.607,-0.149,0.990,-0.011,0.977,0.885,-0.397,93.333,109672.000,1.000
11.588,4.213,9.732,-1.059,-3.791,-10.384,-10.623,-3.091,-0.149,0.989,-0.012,0.885,0.824,-0.305,93.333,109673.000,1.000
9.710,0.951,6.948,-1.942,-5.603,-10.844,-10.741,-2.994,-0.150,0.990,-0.011,0.946,0.824,-0.275,93.333,109674.000,1.000
8.055,-1.699,3.947,-2.948,-8.429,-12.481,-11.190,-4.588,-0.151,0.990,-0.008,0.977,0.854,-0.275,93.333,109675.000,1.000
7.146,-3.096,1.815,-3.353,-10.675,-13.875,-11.262,-6.453,-0.150,0.989,-0.010,0.885,0.824,-0.183,93.333,109676.000,1.000
6.811,-3.147,1.290,-2.612,-10.300,-12.932,-10.418,-6.530,-0.149,0.989,-0.008,0.885,0.793,-0.122,93.333,109677.000,1.000
6.606,-2.315,1.609,-1.580,-8.207,-10.360,-9.008,-5.435,-0.146,0.988,-0.009,0.916,0.732,-0.122,93.333,109678.000,1.000
6.201,-1.101,1.529,-1.654,-6.673,-8.389,-7.585,-5.007,-0.148,0.988,-0.011,0.977,0.793,-0.061,93.333,109679.000,1.000
5.297,0.273,0.860,-3.188,-5.750,-7.118,-6.146,-5.005,-0.146,0.988,-0.012,0.916,0.885,-0.153,93.333,109680.000,1.000
3.637,1.671,0.084,-5.626,-4.099,-4.978,-4.615,-4.098,-0.148,0.985,-0.012,0.916,0.946,-0.214,93.333,109681.000,1.000
1.448,2.966,-0.701,-8.413,-2.118,-1.976,-3.243,-2.783,-0.148,0.985,-0.009,1.099,0.793,-0.244,93.333,109682.000,1.000
-0.376,4.417,-1.235,-10.520,-1.001,0.651,-1.732,-2.165,-0.148,0.988,-0.010,1.160,0.946,-0.183,93.333,109683.000,1.000
-0.982,6.502,-0.429,-10.041,0.218,3.364,0.995,-1.043,-0.147,0.987,-0.011,1.190,0.977,-0.183,93.333,109684.000,1.000
-0.486,8.767,2.046,-6.235,2.993,7.353,4.857,2.186,-0.147,0.987,-0.011,1.160,0.977,-0.275,93.333,109685.000,1.000
0.221,9.541,4.233,-1.467,5.413,10.935,7.409,5.511,-0.147,0.987,-0.014,1.160,0.977,-0.275,93.333,109686.000,1.000
0.458,7.562,3.706,0.709,3.855,10.567,6.106,4.950,-0.147,0.989,-0.014,1.251,1.038,-0.397,93.333,109687.000,1.000
0.154,3.430,0.495,-0.815,-1.689,5.761,1.268,0.077,-0.146,0.990,-0.011,1.251,1.221,-0.427,93.333,109688.000,1.000
-0.489,-1.052,-3.224,-4.328,-7.394,-0.165,-4.362,-5.421,-0.148,0.986,-0.012,1.221,1.190,-0.519,93.333,109689.000,1.000
-1.257,-4.510,-5.938,-8.061,-10.836,-4.686,-8.537,-8.896,-0.148,0.987,-0.010,1.190,1.129,-0.458,93.333,109690.000,1.000
-1.803,-6.439,-7.697,-11.507,-13.002,-8.336,-10.858,-11.080,-0.147,0.986,-0.011,1.251,1.221,-0.549,93.333,109691.000,1.000
-1.779,-6.755,-8.552,-14.157,-14.710,-11.758,-11.759,-12.818,-0.147,0.988,-0.013,1.312,1.190,-0.519,93.333,109692.000,1.000
-1.374,-5.828,-8.052,-15.130,-14.774,-13.762,-11.774,-13.227,-0.148,0.989,-0.017,1.282,1.251,-0.580,93.333,109693.000,1.000
-1.249,-4.604,-6.536,-14.629,-13.029,-13.724,-11.775,-12.436,-0.149,0.990,-0.017,1.373,1.190,-0.549,93.333,109694.000,1.000
-1.735,-3.999,-5.382,-14.202,-11.921,-13.313,-12.640,-12.857,-0.149,0.990,-0.014,1.404,1.251,-0.549,93.333,109695.000,1.000
-2.527,-4.279,-5.403,-14.873,-13.211,-14.008,-14.322,-15.771,-0.150,0.988,-0.012,1.404,1.312,-0.549,93.333,109696.000,1.000
-3.126,-5.152,-5.943,-16.046,-15.449,-14.752,-15.831,-19.039,-0.150,0.989,-0.012,1.343,1.343,-0.610,93.333,109697.000,1.000
-3.207,-6.139,-6.101,-16.855,-16.634,-13.935,-16.286,-20.207,-0.149,0.988,-0.012,1.404,1.312,-0.549,93.333,109698.000,1.000
-2.656,-6.796,-6.007,-17.504,-17.269,-12.137,-15.639,-19.811,-0.151,0.988,-0.013,1.434,1.343,-0.519,93.333,109699.000,1.000
-1.710,-6.906,-6.239,-18.506,-18.639,-10.947,-14.428,-19.581,-0.151,0.989,-0.016,1.434,1.251,-0.488,93.333,109700.000,1.000
-1.103,-6.635,-6.834,-19.625,-19.991,-10.379,-13.343,-19.468,-0.154,0.989,-0.016,1.373,1.312,-0.427,93.333,109701.000,1.000
-1.594,-6.249,-7.582,-20.468,-19.820,-9.529,-12.959,-18.686,-0.153,0.990,-0.017,1.495,1.221,-0.366,93.333,109702.000,1.000
-3.214,-5.594,-8.611,-21.283,-18.461,-8.717,-13.259,-17.840,-0.152,0.990,-0.016,1.434,1.251,-0.458,93.333,109703.000,1.000
-5.326,-4.246,-9.932,-22.342,-17.046,-8.743,-13.343,-17.547,-0.151,0.989,-0.013,1.465,1.221,-0.366,93.333,109704.000,1.000
-7.432,-2.242,-10.932,-23.121,-15.080,-8.704,-12.097,-16.296,-0.151,0.988,-0.014,1.282,1.129,-0.275,93.333,109705.000,1.000
-9.514,-0.330,-11.112,-23.026,-11.653,-6.987,-9.415,-12.383,-0.152,0.987,-0.013,1.282,1.160,-0.336,93.333,109706.000,1.000
-11.515,0.658,-10.953,-22.508,-8.183,-4.152,-6.436,-7.142,-0.153,0.989,-0.012,1.251,1.099,-0.397,93.333,109707.000,1.000
-12.877,0.643,-11.115,-22.386,-7.032,-2.326,-4.335,-3.542,-0.152,0.987,-0.011,1.343,1.068,-0.336,93.333,109708.000,1.000
-13.007,0.276,-11.192,-22.447,-7.851,-1.895,-3.297,-2.204,-0.152,0.988,-0.011,1.404,1.038,-0.305,93.333,109709.000,1.000
-12.117,0.049,-10.439,-21.975,-8.257,-1.439,-2.985,-1.571,-0.154,0.986,-0.013,1.404,1.007,-0.336,93.333,109710.000,1.000
-11.165,-0.215,-9.316,-21.293,-7.790,-0.881,-3.327,-1.374,-0.153,0.987,-0.015,1.434,0.946,-0.275,93.333,109711.000,1.000
-10.875,-0.767,-8.956,-21.320,-8.069,-1.756,-4.128,-2.752,-0.153,0.987,-0.015,1.526,1.038,-0.305,93.333,109712.000,1.000
-11.213,-1.359,-9.315,-21.766,-9.098,-3.994,-4.483,-5.044,-0.151,0.986,-0.015,1.495,1.038,-0.366,93.333,109713.000,1.000
-11.839,-1.672,-9.310,-21.342,-8.872,-5.400,-3.622,-5.859,-0.151,0.987,-0.016,1.434,0.977,-0.366,93.333,109714.000,1.000
-12.518,-1.863,-8.660,-19.735,-7.088,-5.030,-2.034,-4.823,-0.151,0.990,-0.017,1.343,0.854,-0.366,93.333,109715.000,1.000
-12.880,-2.155,-8.086,-17.851,-5.882,-4.314,-0.748,-4.080,-0.153,0.989,-0.017,1.404,0.916,-0.336,93.333,109716.000,1.000
-12.345,-2.295,-7.695,-16.040,-6.068,-3.943,0.167,-4.403,-0.152,0.988,-0.016,1.465,0.885,-0.397,93.333,109717.000,1.000
-10.677,-1.901,-6.638,-13.622,-5.716,-2.403,1.451,-3.827,-0.152,0.988,-0.016,1.404,0.885,-0.366,93.333,109718.000,1.000
-8.293,-1.090,-4.672,-10.503,-3.690,1.009,3.255,-1.271,-0.151,0.988,-0.016,1.495,0.763,-0.305,93.333,109719.000,1.000
-5.935,-0.452,-2.827,-7.927,-1.851,4.093,4.780,1.291,-0.151,0.988,-0.015,1.404,0.671,-0.244,93.333,109720.000,1.000
-4.310,-0.467,-2.046,-6.997,-2.106,4.572,5.344,1.824,-0.150,0.986,-0.016,1.312,0.671,-0.214,93.333,109721.000,1.000
-3.918,-1.191,-2.145,-7.447,-3.652,3.105,5.010,0.971,-0.152,0.984,-0.018,1.312,0.671,-0.122,93.333,109722.000,1.000
-4.801,-2.411,-2.664,-8.544,-5.090,1.505,3.977,-0.059,-0.152,0.986,-0.015,1.312,0.610,-0.031,93.333,109723.000,1.000
-6.370,-3.802,-3.785,-10.202,-6.987,-0.263,2.137,-1.971,-0.153,0.987,-0.017,1.251,0.519,-0.122,93.333,109724.000,1.000
-7.794,-4.920,-5.567,-12.355,-10.019,-3.042,-0.311,-5.368,-0.154,0.989,-0.014,1.221,0.397,-0.061,93.333,109725.000,1.000
-8.609,-5.303,-7.090,-14.050,-12.455,-5.859,-2.380,-8.139,-0.155,0.990,-0.013,1.160,0.305,0.061,93.333,109726.000,1.000
-8.900,-4.791,-7.423,-14.365,-12.216,-6.996,-3.075,-7.740,-0.153,0.988,-0.011,1.160,0.244,0.122,93.333,109727.000,1.000
-9.071,-3.717,-6.972,-13.788,-10.171,-6.844,-2.331,-4.909,-0.154,0.990,-0.017,1.007,0.275,0.061,93.333,109728.000,1.000
-9.555,-2.605,-6.779,-13.589,-8.608,-7.010,-0.627,-2.268,-0.154,0.989,-0.016,0.916,0.214,0.153,93.333,109729.000,1.000
-10.614,-1.731,-6.890,-14.175,-7.510,-7.213,1.789,-0.379,-0.153,0.988,-0.015,0.854,0.122,0.214,93.333,109730.000,1.000
-12.271,-1.167,-6.686,-15.206,-5.403,-5.948,4.488,1.779,-0.150,0.991,-0.013,0.824,0.122,0.336,93.333,109731.000,1.000
-14.194,-1.004,-6.293,-16.696,-2.884,-3.805,6.340,3.575,-0.147,0.988,-0.016,0.824,0.092,0.244,93.333,109732.000,1.000
-15.638,-1.171,-6.196,-18.507,-1.918,-3.051,6.438,3.448,-0.149,0.987,-0.016,0.702,0.092,0.336,93.333,109733.000,1.000
-15.822,-1.255,-5.895,-19.265,-2.184,-3.988,5.155,2.230,-0.148,0.990,-0.017,0.641,0.122,0.366,93.333,109734.000,1.000
-14.482,-0.900,-4.461,-17.454,-1.505,-4.692,3.533,2.424,-0.146,0.989,-0.015,0.549,0.214,0.336,93.333,109735.000,1.000
-11.837,-0.173,-2.098,-13.404,0.375,-4.429,2.199,4.363,-0.147,0.989,-0.012,0.519,0.275,0.427,93.333,109736.000,1.000
-8.149,0.728,0.216,-8.831,1.667,-4.321,1.425,6.108,-0.147,0.989,-0.014,0.549,0.366,0.366,93.333,109737.000,1.000
-3.754,1.836,2.347,-4.680,2.125,-4.440,1.479,7.030,-0.146,0.989,-0.015,0.580,0.397,0.427,93.333,109738.000,1.000
0.624,3.150,4.951,-0.706,3.523,-3.291,2.195,8.453,-0.146,0.988,-0.015,0.549,0.549,0.366,93.333,109739.000,1.000
4.184,4.414,8.003,3.118,6.247,-0.766,2.771,10.541,-0.147,0.987,-0.013,0.519,0.610,0.275,93.333,109740.000,1.000
6.700,5.459,10.649,6.286,8.455,1.126,2.627,11.559,-0.147,0.987,-0.013,0.549,0.641,0.244,93.333,109741.000,1.000
8.439,6.353,12.500,8.830,9.296,1.361,2.095,10.894,-0.145,0.988,-0.013,0.488,0.763,0.214,93.333,109742.000,1.000
9.527,6.936,13.893,11.386,10.121,1.293,1.803,10.109,-0.144,0.988,-0.010,0.458,0.732,0.275,93.333,109743.000,1.000
9.863,6.699,14.745,13.857,11.450,1.856,1.746,9.991,-0.144,0.989,-0.015,0.488,0.824,0.214,93.333,109744.000,1.000
9.502,5.393,14.252,15.130,11.460,1.754,1.453,9.063,-0.144,0.988,-0.012,0.488,0.885,0.183,93.333,109745.000,1.000
8.564,3.406,12.117,14.574,9.024,-0.022,0.762,6.385,-0.145,0.988,-0.011,0.458,1.038,0.122,93.333,109746.000,1.000
6.979,1.433,9.253,12.953,5.963,-1.893,-0.005,3.632,-0.144,0.988,-0.013,0.458,1.190,0.153,93.333,109747.000,1.000
4.866,0.155,6.835,11.387,4.503,-1.776,-0.458,2.675,-0.145,0.988,-0.011,0.458,1.343,0.153,93.333,109748.000,1.000
2.922,0.114,5.220,10.098,4.344,-0.035,-0.465,2.792,-0.145,0.990,-0.011,0.427,1.343,0.092,93.333,109749.000,1.000
1.922,1.490,4.284,8.772,4.214,1.682,-0.076,2.258,-0.144,0.988,-0.012,0.488,1.434,0.092,93.333,109750.000,1.000
2.046,3.914,4.261,7.630,4.671,3.361,0.671,1.351,-0.145,0.988,-0.010,0.549,1.495,0.061,93.333,109751.000,1.000
2.918,6.491,5.305,7.115,6.715,5.910,1.549,1.343,-0.146,0.987,-0.009,0.458,1.648,0.122,93.333,109752.000,1.000
3.967,8.086,6.500,6.713,8.863,8.396,1.921,1.591,-0.146,0.989,-0.010,0.519,1.648,0.153,93.333,109753.000,1.000
4.558,7.876,6.449,5.338,8.644,8.843,1.286,0.505,-0.148,0.989,-0.012,0.519,1.770,0.183,93.333,109754.000,1.000
4.106,5.839,4.843,2.889,6.309,7.386,-0.118,-1.329,-0.147,0.989,-0.011,0.549,1.801,0.275,93.333,109755.000,1.000
2.498,2.756,2.538,0.300,4.171,5.931,-1.708,-1.965,-0.148,0.987,-0.011,0.580,1.862,0.153,93.333,109756.000,1.000
0.436,-0.194,0.349,-1.734,2.977,4.982,-3.164,-1.441,-0.148,0.987,-0.011,0.580,1.831,0.183,93.333,109757.000,1.000
-0.909,-1.946,-1.204,-2.919,1.899,3.530,-4.179,-1.341,-0.148,0.988,-0.008,0.610,1.831,0.183,93.333,109758.000,1.000
-0.883,-2.043,-1.404,-2.664,1.471,1.870,-4.145,-1.485,-0.148,0.989,-0.011,0.641,1.862,0.183,93.333,109759.000,1.000
0.103,-0.943,0.114,-0.624,3.215,1.587,-2.797,-0.171,-0.149,0.989,-0.011,0.671,1.831,0.092,93.333,109760.000,1.000
1.187,0.388,2.456,2.247,6.437,2.564,-0.809,2.440,-0.150,0.989,-0.008,0.702,1.740,0.122,93.333,109761.000,1.000
1.996,1.409,4.262,4.441,8.652,2.870,1.010,4.390,-0.151,0.989,-0.010,0.702,1.740,0.214,93.333,109762.000,1.000
2.632,2.291,5.236,5.601,9.358,2.038,2.692,5.417,-0.152,0.988,-0.010,0.641,1.709,0.214,93.333,109763.000,1.000
3.024,3.205,5.937,6.407,10.333,1.706,4.467,7.190,-0.149,0.988,-0.010,0.610,1.617,0.336,93.333,109764.000,1.000
2.947,3.894,6.384,7.060,11.943,2.474,5.823,9.789,-0.148,0.989,-0.009,0.671,1.648,0.458,93.333,109765.000,1.000
2.606,4.256,6.128,7.183,12.400,2.893,6.196,11.206,-0.147,0.990,-0.010,0.641,1.587,0.336,93.333,109766.000,1.000
2.631,4.822,5.618,7.226,11.414,2.521,6.129,10.998,-0.148,0.989,-0.010,0.824,1.587,0.305,93.333,109767.000,1.000
3.488,6.193,6.181,8.573,11.398,3.279,6.770,11.394,-0.148,0.988,-0.009,0.854,1.648,0.153,93.333,109768.000,1.000
5.178,8.222,8.278,11.697,13.699,6.288,8.424,13.618,-0.148,0.988,-0.011,0.854,1.587,0.214,93.333,109769.000,1.000
7.413,10.162,10.849,15.299,16.382,9.660,10.313,15.792,-0.147,0.989,-0.008,0.946,1.495,0.305,93.333,109770.000,1.000
9.830,11.494,12.863,17.966,17.502,11.280,11.679,16.089,-0.146,0.988,-0.007,0.916,1.465,0.336,93.333,109771.000,1.000
12.102,12.270,14.497,19.695,18.009,11.795,12.399,15.492,-0.146,0.986,-0.014,1.007,1.465,0.275,93.333,109772.000,1.000
14.000,12.720,16.054,20.892,19.280,12.706,12.415,15.336,-0.146,0.987,-0.012,0.916,1.495,0.153,93.333,109773.000,1.000
15.293,12.787,16.690,20.884,20.083,13.311,11.423,14.443,-0.143,0.991,-0.010,1.007,1.404,0.122,93.333,109774.000,1.000
15.603,12.145,15.366,18.801,18.632,12.057,9.501,11.282,-0.145,0.990,-0.011,1.068,1.434,0.092,93.333,109775.000,1.000
14.545,10.553,12.421,15.191,15.876,9.570,7.298,7.082,-0.144,0.989,-0.009,1.160,1.465,0.153,93.333,109776.000,1.000
12.128,8.172,9.152,11.443,14.009,7.771,5.337,4.183,-0.144,0.989,-0.007,1.221,1.526,0.153,93.333,109777.000,1.000
9.040,5.716,6.430,8.242,13.203,7.024,3.892,2.829,-0.144,0.988,-0.011,1.221,1.556,0.092,93.333,109778.000,1.000
6.316,4.144,4.632,5.727,12.434,6.506,3.467,2.028,-0.146,0.987,-0.012,1.190,1.526,0.061,93.333,109779.000,1.000
4.602,3.903,4.222,4.508,12.253,6.490,4.514,2.182,-0.146,0.986,-0.012,1.221,1.648,0.122,93.333,109780.000,1.000
3.958,4.568,5.345,5.276,13.926,7.713,6.611,4.208,-0.144,0.987,-0.008,1.282,1.709,0.031,93.333,109781.000,1.000
4.357,5.379,7.200,7.673,16.600,9.008,8.585,6.951,-0.144,0.988,-0.012,1.312,1.617,0.031,93.333,109782.000,1.000
5.925,5.944,8.763,10.606,18.174,8.244,9.717,8.347,-0.146,0.990,-0.010,1.312,1.587,0.000,93.333,109783.000,1.000
8.513,6.280,9.977,13.511,18.673,5.589,10.415,8.728,-0.144,0.990,-0.010,1.190,1.678,-0.122,93.333,109784.000,1.000
11.394,6.401,11.376,16.324,19.911,3.297,11.392,10.209,-0.145,0.991,-0.012,1.190,1.678,-0.122,93.333,109785.000,1.000
13.786,6.222,12.790,18.505,21.963,2.126,12.659,12.918,-0.142,0.990,-0.013,1.099,1.648,-0.183,93.333,109786.000,1.000
15.421,5.874,13.458,19.305,22.917,0.537,13.803,14.734,-0.141,0.989,-0.012,1.129,1.709,-0.153,93.333,109787.000,1.000
16.273,5.687,13.249,18.952,22.355,-2.165,14.794,14.954,-0.144,0.990,-0.010,1.160,1.801,-0.183,93.333,109788.000,1.000
16.074,5.673,12.676,18.429,22.006,-4.679,15.787,15.207,-0.144,0.990,-0.013,1.282,1.770,-0.153,93.333,109789.000,1.000
14.625,5.400,11.801,18.032,22.380,-6.527,16.425,16.131,-0.144,0.992,-0.010,1.251,1.892,-0.244,93.333,109790.000,1.000
12.415,4.749,10.397,17.356,21.906,-9.196,16.297,16.278,-0.146,0.993,-0.012,1.190,1.770,-0.244,93.333,109791.000,1.000
10.376,4.376,9.116,16.680,20.288,-13.185,15.870,15.239,-0.147,0.993,-0.015,1.160,1.862,-0.214,93.333,109792.000,1.000
9.049,4.862,9.042,16.843,19.475,-16.762,15.829,14.657,-0.146,0.990,-0.013,1.099,1.831,-0.122,93.333,109793.000,1.000
8.442,5.714,9.889,17.532,19.988,-19.157,15.645,14.862,-0.146,0.988,-0.013,0.977,1.831,-0.092,93.333,109794.000,1.000
8.607,5.937,10.053,17.205,19.452,-22.169,14.015,13.525,-0.148,0.986,-0.014,1.038,1.831,-0.092,93.333,109795.000,1.000
9.800,5.415,8.862,15.275,16.519,-26.770,10.804,9.381,-0.150,0.987,-0.012,1.190,1.831,-0.031,93.333,109796.000,1.000
11.954,5.007,7.503,13.048,13.422,-30.719,7.444,4.725,-0.150,0.990,-0.011,1.129,1.648,-0.092,93.333,109797.000,1.000
14.355,5.337,7.156,11.808,12.615,-31.584,5.295,2.284,-0.151,0.989,-0.010,1.190,1.556,0.000,93.333,109798.000,1.000
16.107,6.210,7.472,11.184,13.381,-29.879,4.583,1.797,-0.150,0.990,-0.011,1.099,1.434,-0.031,93.333,109799.000,1.000
16.755,7.209,7.648,10.273,14.036,-27.058,5.104,1.850,-0.150,0.989,-0.012,1.099,1.373,-0.031,93.333,109800.000,1.000
16.281,8.167,7.775,9.173,15.174,-22.552,6.861,2.922,-0.146,0.986,-0.012,1.129,1.282,0.000,93.333,109801.000,1.000
14.853,8.921,8.142,8.337,17.985,-15.352,9.481,5.893,-0.147,0.983,-0.014,1.312,1.251,0.031,93.333,109802.000,1.000
12.866,9.230,8.221,7.444,21.205,-6.887,12.016,9.327,-0.145,0.982,-0.016,1.312,1.129,0.061,93.333,109803.000,1.000
10.886,9.119,7.438,6.157,22.730,0.271,13.944,11.212,-0.144,0.985,-0.013,1.343,1.038,0.153,93.333,109804.000,1.000
9.204,8.836,6.246,5.197,22.915,5.562,15.607,12.064,-0.144,0.989,-0.014,1.556,1.007,0.183,93.333,109805.000,1.000
7.630,8.388,5.405,5.422,23.452,10.001,17.212,13.545,-0.143,0.989,-0.013,1.587,1.007,0.305,93.333,109806.000,1.000
5.964,7.546,4.756,6.357,23.969,13.363,18.078,15.011,-0.143,0.989,-0.012,1.556,1.038,0.366,93.333,109807.000,1.000
4.368,6.281,3.684,6.814,22.697,14.350,17.416,14.348,-0.145,0.990,-0.014,1.526,1.068,0.244,93.333,109808.000,1.000
3.053,4.795,2.356,6.603,19.967,13.401,15.416,11.682,-0.145,0.990,-0.013,1.495,1.007,0.244,93.333,109809.000,1.000
1.928,3.139,1.475,6.527,18.072,12.738,13.046,9.351,-0.143,0.991,-0.012,1.434,0.885,0.214,93.333,109810.000,1.000
0.908,1.281,1.122,6.959,17.694,13.278,11.086,8.281,-0.145,0.992,-0.011,1.465,0.885,0.244,93.333,109811.000,1.000
0.233,-0.427,0.847,7.555,17.360,13.937,9.872,7.249,-0.144,0.992,-0.015,1.434,0.824,0.122,93.333,109812.000,1.000
0.110,-1.385,0.710,8.267,16.666,14.415,9.671,5.980,-0.144,0.992,-0.013,1.343,0.916,-0.031,93.333,109813.000,1.000
0.244,-1.545,1.149,9.386,16.981,16.011,10.452,5.888,-0.147,0.992,-0.013,1.190,0.732,-0.122,93.333,109814.000,1.000
0.135,-1.588,1.847,10.475,18.336,18.878,11.490,7.027,-0.146,0.991,-0.009,1.129,0.671,-0.214,93.333,109815.000,1.000
-0.226,-2.053,1.912,10.547,18.669,21.105,12.013,7.336,-0.146,0.992,-0.009,0.946,0.671,-0.397,93.333,109816.000,1.000
-0.385,-2.706,1.278,9.547,17.212,21.715,12.151,6.024,-0.145,0.991,-0.018,1.007,0.519,-0.488,93.333,109817.000,1.000
-0.111,-3.027,0.856,8.565,15.908,22.341,12.639,5.018,-0.145,0.990,-0.013,0.946,0.549,-0.580,93.333,109818.000,1.000
0.286,-2.964,1.003,8.182,16.091,24.399,13.664,5.652,-0.143,0.990,-0.013,0.916,0.580,-0.610,93.333,109819.000,1.000
0.322,-2.882,0.923,7.707,16.328,26.697,14.622,6.450,-0.142,0.988,-0.014,0.885,0.641,-0.671,93.333,109820.000,1.000
-0.237,-2.967,0.085,6.629,15.335,27.829,15.156,6.020,-0.141,0.988,-0.015,0.824,0.671,-0.671,93.333,109821.000,1.000
-1.399,-3.148,-0.906,5.583,14.482,28.809,15.632,5.639,-0.140,0.989,-0.015,0.885,0.671,-0.671,93.333,109822.000,1.000
-3.067,-3.502,-1.542,4.995,15.149,30.941,16.280,6.732,-0.141,0.986,-0.013,0.977,0.671,-0.671,93.333,109823.000,1.000
-4.942,-4.275,-2.437,3.962,15.872,32.930,16.638,8.033,-0.143,0.987,-0.011,0.977,0.793,-0.702,93.333,109824.000,1.000
-6.613,-5.500,-4.255,1.536,14.622,32.690,16.186,7.682,-0.142,0.988,-0.010,1.007,0.885,-0.671,93.333,109825.000,1.000
-7.918,-6.883,-6.514,-1.752,12.106,30.628,14.899,6.314,-0.145,0.988,-0.010,1.068,0.885,-0.610,93.333,109826.000,1.000
-9.003,-8.070,-8.340,-4.726,10.200,28.625,12.871,5.495,-0.146,0.988,-0.013,1.038,0.824,-0.641,93.333,109827.000,1.000
-9.949,-8.856,-9.723,-7.128,8.589,26.871,9.988,4.613,-0.149,0.985,-0.012,1.038,0.732,-0.519,93.333,109828.000,1.000
-10.485,-9.179,-10.994,-9.144,5.871,24.346,6.499,2.221,-0.149,0.985,-0.013,1.099,0.732,-0.549,93.333,109829.000,1.000
-10.179,-9.044,-11.597,-10.030,2.934,21.747,3.450,-0.552,-0.149,0.986,-0.012,1.038,0.793,-0.580,93.333,109830.000,1.000
-8.827,-8.527,-10.600,-8.700,2.104,20.951,1.851,-1.085,-0.149,0.987,-0.016,1.068,0.702,-0.610,93.333,109831.000,1.000
-6.494,-7.672,-8.119,-5.408,3.452,21.741,1.683,0.745,-0.148,0.987,-0.013,1.007,0.702,-0.610,93.333,109832.000,1.000
-3.311,-6.298,-5.061,-1.491,5.014,21.990,2.261,2.703,-0.146,0.989,-0.012,0.977,0.732,-0.671,93.333,109833.000,1.000
0.355,-4.306,-1.866,2.258,6.232,21.112,3.104,3.880,-0.145,0.989,-0.010,1.038,0.702,-0.641,93.333,109834.000,1.000
3.746,-2.224,1.385,5.749,8.162,20.519,3.895,5.175,-0.145,0.990,-0.012,1.007,0.549,-0.671,93.333,109835.000,1.000
6.207,-0.925,4.045,8.520,10.432,20.556,4.178,6.372,-0.145,0.991,-0.011,0.977,0.488,-0.610,93.333,109836.000,1.000
7.800,-0.639,5.392,9.960,11.171,19.809,3.816,5.974,-0.146,0.990,-0.010,0.977,0.519,-0.610,93.333,109837.000,1.000
9.154,-0.608,5.953,10.662,10.386,18.089,3.461,4.332,-0.146,0.989,-0.009,0.885,0.488,-0.641,93.333,109838.000,1.000
10.764,0.064,7.065,12.143,10.404,17.319,3.863,3.917,-0.144,0.991,-0.010,0.854,0.519,-0.641,93.333,109839.000,1.000
12.595,1.493,8.991,14.858,12.110,18.328,4.820,5.556,-0.144,0.990,-0.009,0.793,0.488,-0.732,93.333,109840.000,1.000
14.270,3.178,10.640,17.669,13.587,19.348,5.508,7.174,-0.144,0.990,-0.009,0.671,0.488,-0.671,93.333,109841.000,1.000
15.328,4.734,11.288,19.495,13.559,19.083,5.700,7.308,-0.142,0.990,-0.011,0.610,0.580,-0.671,93.333,109842.000,1.000
15.336,6.098,11.365,20.325,13.390,18.840,5.884,7.119,-0.144,0.988,-0.011,0.641,0.610,-0.580,93.333,109843.000,1.000
14.250,7.240,11.324,20.360,14.296,20.028,6.408,7.703,-0.143,0.988,-0.010,0.519,0.702,-0.610,93.333,109844.000,1.000
12.714,8.038,10.922,19.447,15.181,21.687,7.296,8.128,-0.144,0.990,-0.010,0.458,0.793,-0.519,93.333,109845.000,1.000
11.674,8.446,10.154,17.922,15.046,22.356,8.715,7.773,-0.145,0.989,-0.011,0.519,0.824,-0.580,93.333,109846.000,1.000
11.628,8.568,9.858,16.978,15.195,22.556,10.803,8.129,-0.144,0.988,-0.012,0.488,0.793,-0.610,93.333,109847.000,1.000
12.388,8.501,10.573,17.299,16.808,23.281,12.968,10.197,-0.144,0.986,-0.014,0.580,0.885,-0.671,93.333,109848.000,1.000
13.463,8.336,11.603,18.071,18.343,23.711,14.187,12.215,-0.144,0.986,-0.013,0.671,1.007,-0.732,93.333,109849.000,1.000
14.458,8.353,12.101,18.204,17.913,22.867,14.226,12.264,-0.143,0.987,-0.008,0.671,1.099,-0.824,93.333,109850.000,1.000
15.013,8.780,12.213,17.700,16.473,22.043,13.889,11.290,-0.146,0.988,-0.007,0.824,1.190,-0.854,93.333,109851.000,1.000
14.612,9.235,12.201,16.865,15.870,22.948,13.798,11.114,-0.146,0.985,-0.011,0.824,1.251,-0.824,93.333,109852.000,1.000
12.896,8.895,11.359,15.139,15.344,24.534,13.564,11.075,-0.147,0.986,-0.015,0.916,1.251,-0.824,93.333,109853.000,1.000
10.162,7.415,9.024,12.045,13.016,24.370,12.581,9.405,-0.146,0.985,-0.012,0.885,1.312,-0.946,93.333,109854.000,1.000
7.203,5.257,5.960,8.566,9.599,22.414,11.029,6.654,-0.148,0.986,-0.009,1.007,1.343,-0.946,93.333,109855.000,1.000
4.575,3.007,3.493,6.156,7.383,20.680,9.393,4.735,-0.148,0.987,-0.009,1.068,1.404,-1.007,93.333,109856.000,1.000
2.397,0.833,1.783,4.849,6.325,19.622,7.593,3.372,-0.149,0.989,-0.011,1.160,1.434,-1.068,93.333,109857.000,1.000
0.808,-1.173,0.223,3.731,4.457,17.819,5.408,0.706,-0.149,0.987,-0.010,1.190,1.343,-1.068,93.333,109858.000,1.000
0.181,-2.576,-0.921,2.865,1.830,15.234,3.363,-2.887,-0.151,0.987,-0.010,1.373,1.373,-1.068,93.333,109859.000,1.000
0.574,-3.047,-0.833,3.105,0.574,13.655,2.232,-4.933,-0.149,0.989,-0.011,1.404,1.404,-1.007,93.333,109860.000,1.000
1.315,-2.991,0.081,4.184,0.936,13.402,1.871,-4.986,-0.148,0.989,-0.010,1.556,1.373,-0.946,93.333,109861.000,1.000
1.535,-3.060,0.482,4.849,0.805,12.649,1.569,-5.130,-0.149,0.990,-0.012,1.556,1.312,-0.916,93.333,109862.000,1.000
0.943,-3.268,0.181,4.970,-0.312,10.840,1.357,-5.933,-0.150,0.989,-0.012,1.587,1.373,-0.916,93.333,109863.000,1.000
-0.155,-3.236,0.323,5.725,-0.359,9.842,1.788,-5.518,-0.152,0.986,-0.012,1.617,1.404,-0.854,93.333,109864.000,1.000
-1.171,-2.907,1.447,7.513,1.377,10.660,2.677,-3.441,-0.151,0.988,-0.010,1.740,1.434,-0.793,93.333,109865.000,1.000
-1.387,-2.415,2.839,9.331,2.748,11.753,3.216,-2.002,-0.151,0.986,-0.011,1.770,1.312,-0.793,93.333,109866.000,1.000
-0.335,-1.693,3.924,10.499,2.315,11.869,3.083,-2.585,-0.151,0.986,-0.013,1.923,1.343,-0.793,93.333,109867.000,1.000
1.628,-0.842,4.889,11.412,1.384,11.927,2.472,-3.745,-0.151,0.987,-0.012,1.892,1.373,-0.763,93.333,109868.000,1.000
3.437,-0.444,5.590,12.114,1.051,12.631,1.291,-4.328,-0.152,0.989,-0.012,1.831,1.404,-0.763,93.333,109869.000,1.000
4.310,-0.859,5.274,11.745,0.157,12.708,-0.596,-5.497,-0.151,0.989,-0.013,1.862,1.373,-0.702,93.333,109870.000,1.000
4.364,-1.578,3.975,10.165,-1.945,11.297,-2.391,-7.796,-0.152,0.991,-0.010,1.953,1.343,-0.610,93.333,109871.000,1.000
4.124,-1.847,2.956,8.718,-3.278,9.979,-2.722,-9.013,-0.152,0.990,-0.012,1.831,1.404,-0.641,93.333,109872.000,1.000
3.852,-1.594,3.065,8.472,-2.162,10.433,-1.232,-7.317,-0.153,0.990,-0.016,1.801,1.373,-0.549,93.333,109873.000,1.000
3.521,-1.262,3.595,8.780,-0.090,11.753,1.066,-4.277,-0.152,0.990,-0.014,1.801,1.373,-0.458,93.333,109874.000,1.000
3.097,-1.045,3.546,8.490,0.697,12.186,3.158,-2.330,-0.154,0.989,-0.015,1.678,1.343,-0.458,93.333,109875.000,1.000
2.587,-0.738,3.082,7.595,0.691,12.136,4.906,-1.214,-0.152,0.990,-0.012,1.587,1.312,-0.427,93.333,109876.000,1.000
1.891,-0.312,2.770,6.635,1.500,12.941,6.311,0.435,-0.152,0.992,-0.012,1.526,1.251,-0.397,93.333,109877.000,1.000
0.936,-0.171,2.289,5.441,2.391,13.847,6.819,1.701,-0.152,0.995,-0.014,1.404,1.160,-0.305,93.333,109878.000,1.000
-0.054,-0.599,1.167,3.780,1.547,13.054,6.042,0.755,-0.153,0.995,-0.014,1.343,1.312,-0.305,93.333,109879.000,1.000
-0.710,-1.377,0.042,2.477,-0.368,11.070,4.522,-1.611,-0.152,0.995,-0.016,1.251,1.221,-0.366,93.333,109880.000,1.000
-0.878,-2.205,-0.133,2.487,-1.161,10.055,3.042,-3.049,-0.152,0.992,-0.015,1.038,1.160,-0.305,93.333,109881.000,1.000
-0.487,-2.938,0.508,3.465,-0.781,10.318,1.779,-3.377,-0.150,0.989,-0.014,0.854,1.099,-0.122,93.333,109882.000,1.000
0.680,-3.219,1.315,4.504,-0.859,10.318,0.828,-4.121,-0.150,0.986,-0.014,0.671,1.160,-0.061,93.333,109883.000,1.000
2.501,-2.587,2.343,5.611,-1.270,9.785,0.664,-5.101,-0.149,0.981,-0.016,0.732,1.221,-0.031,93.333,109884.000,1.000
4.059,-1.269,3.729,7.085,-0.529,9.856,1.242,-4.798,-0.147,0.983,-0.018,0.885,1.312,0.153,93.333,109885.000,1.000
4.239,-0.396,4.372,7.930,0.583,10.011,1.253,-3.959,-0.146,0.985,-0.017,0.977,1.343,0.183,93.333,109886.000,1.000
2.706,-1.035,2.702,6.442,-0.785,7.909,-0.766,-5.460,-0.148,0.987,-0.013,0.946,1.282,0.275,93.333,109887.000,1.000
0.088,-3.101,-1.118,2.558,-5.078,3.138,-4.648,-9.887,-0.148,0.987,-0.015,0.885,1.282,0.214,93.333,109888.000,1.000
-2.582,-5.430,-4.969,-1.664,-9.128,-1.404,-8.560,-14.251,-0.148,0.985,-0.013,0.946,1.251,0.183,93.333,109889.000,1.000
-4.392,-6.785,-7.039,-4.307,-10.425,-3.052,-10.753,-16.084,-0.149,0.983,-0.013,0.885,1.434,0.214,93.333,109890.000,1.000
-4.793,-6.550,-7.253,-5.217,-9.782,-2.099,-10.822,-16.088,-0.150,0.982,-0.014,0.946,1.312,0.183,93.333,109891.000,1.000
-3.893,-4.848,-6.352,-5.118,-8.692,0.083,-9.388,-15.604,-0.155,0.986,-0.013,1.007,1.282,-0.061,93.333,109892.000,1.000
-2.642,-2.543,-4.926,-4.499,-7.050,3.157,-7.415,-14.360,-0.156,0.990,-0.014,1.068,1.160,-0.061,93.333,109893.000,1.000
-2.267,-0.912,-3.807,-4.026,-5.062,6.502,-5.962,-12.433,-0.156,0.995,-0.012,0.916,1.038,-0.275,93.333,109894.000,1.000
-3.222,-0.614,-3.977,-4.635,-4.479,8.227,-5.588,-11.604,-0.154,0.996,-0.014,0.732,1.038,-0.366,93.333,109895.000,1.000
-4.844,-0.975,-5.244,-6.204,-5.739,7.695,-5.597,-12.552,-0.151,0.995,-0.015,0.549,0.946,-0.458,93.333,109896.000,1.000
-6.195,-0.789,-6.069,-7.227,-6.287,7.172,-4.711,-13.091,-0.148,0.995,-0.015,0.336,0.854,-0.458,93.333,109897.000,1.000
-6.880,0.291,-5.456,-6.706,-4.057,8.794,-2.725,-11.451,-0.147,0.991,-0.017,0.305,0.916,-0.488,93.333,109898.000,1.000
-6.923,1.597,-4.109,-5.434,-0.633,11.373,-0.784,-9.207,-0.147,0.989,-0.014,0.183,1.007,-0.427,93.333,109899.000,1.000
-6.368,2.424,-3.068,-4.635,1.393,12.454,0.168,-8.649,-0.147,0.987,-0.019,0.092,1.038,-0.275,93.333,109900.000,1.000
-5.233,2.763,-2.142,-4.195,2.399,12.190,0.503,-9.092,-0.148,0.987,-0.016,0.092,1.099,-0.305,93.333,109901.000,1.000
-3.598,3.099,-0.617,-3.256,4.333,12.574,1.141,-8.376,-0.148,0.987,-0.015,0.214,1.251,-0.183,93.333,109902.000,1.000
-1.629,3.796,1.254,-1.835,6.883,13.821,2.277,-6.617,-0.148,0.988,-0.014,0.305,1.221,-0.092,93.333,109903.000,1.000
0.427,4.889,2.657,-0.593,8.208,14.490,3.499,-5.475,-0.147,0.990,-0.015,0.336,1.312,0.031,93.333,109904.000,1.000
2.169,6.135,3.560,0.546,8.482,14.546,4.651,-4.715,-0.148,0.989,-0.014,0.305,1.282,0.183,93.333,109905.000,1.000
3.068,7.026,4.416,2.117,9.420,15.293,5.778,-2.705,-0.150,0.989,-0.013,0.275,1.373,0.244,93.333,109906.000,1.000
2.866,7.101,4.982,3.762,10.854,16.472,6.559,0.110,-0.152,0.989,-0.012,0.366,1.404,0.305,93.333,109907.000,1.000
1.860,6.429,4.601,4.499,10.957,16.315,6.625,1.482,-0.154,0.989,-0.011,0.305,1.373,0.336,93.333,109908.000,1.000
0.625,5.545,3.506,4.328,9.753,14.773,6.386,1.174,-0.153,0.989,-0.011,0.275,1.465,0.366,93.333,109909.000,1.000
-0.365,4.932,2.769,4.374,9.390,14.061,6.839,1.472,-0.154,0.991,-0.010,0.336,1.343,0.397,93.333,109910.000,1.000
-0.808,4.653,2.852,5.263,10.559,15.292,8.483,3.428,-0.155,0.991,-0.010,0.366,1.190,0.366,93.333,109911.000,1.000
-0.569,4.468,3.214,6.465,11.531,16.963,10.929,5.514,-0.153,0.993,-0.012,0.397,0.977,0.214,93.333,109912.000,1.000
0.272,4.237,3.560,7.529,11.440,17.652,13.518,6.738,-0.151,0.991,-0.013,0.366,0.916,0.275,93.333,109913.000,1.000
1.429,4.047,4.277,8.718,11.602,17.805,15.624,8.102,-0.151,0.989,-0.010,0.519,0.854,0.275,93.333,109914.000,1.000
2.625,3.993,5.341,10.046,12.543,17.694,16.464,9.895,-0.149,0.987,-0.011,0.397,0.885,0.336,93.333,109915.000,1.000
3.821,4.085,5.984,10.895,12.601,16.017,15.448,10.423,-0.149,0.988,-0.012,0.427,0.916,0.397,93.333,109916.000,1.000
5.024,4.228,5.888,11.033,10.827,12.047,12.752,8.768,-0.146,0.988,-0.006,0.580,0.885,0.397,93.333,109917.000,1.000
6.014,4.123,5.639,11.006,8.708,7.221,8.978,6.320,-0.145,0.988,-0.004,0.671,0.977,0.488,93.333,109918.000,1.000
6.630,3.468,5.665,11.098,7.536,3.063,4.471,4.163,-0.143,0.986,-0.011,0.671,0.946,0.488,93.333,109919.000,1.000
7.188,2.451,5.656,10.790,6.404,-0.708,-0.440,1.330,-0.143,0.987,-0.009,0.671,1.068,0.519,93.333,109920.000,1.000
8.138,1.779,5.468,9.783,4.576,-4.410,-4.783,-2.667,-0.144,0.988,-0.010,0.793,1.099,0.549,93.333,109921.000,1.000
9.369,2.053,5.686,8.739,3.681,-6.533,-7.293,-5.750,-0.144,0.986,-0.010,0.793,1.221,0.549,93.333,109922.000,1.000
10.295,3.242,6.664,8.310,5.262,-5.789,-7.545,-5.916,-0.143,0.986,-0.006,0.793,1.343,0.549,93.333,109923.000,1.000
10.576,4.765,7.701,8.148,7.857,-3.720,-6.299,-4.240,-0.141,0.986,-0.007,0.854,1.434,0.397,93.333,109924.000,1.000
10.384,5.910,7.932,7.717,9.009,-2.918,-4.615,-2.935,-0.139,0.984,-0.009,0.824,1.404,0.366,93.333,109925.000,1.000
10.033,6.145,7.501,7.430,8.800,-3.594,-3.114,-1.990,-0.142,0.985,-0.009,0.824,1.495,0.275,93.333,109926.000,1.000
9.722,5.303,7.092,7.997,8.808,-4.172,-2.148,-0.265,-0.144,0.988,-0.008,0.946,1.617,0.214,93.333,109927.000,1.000
9.598,3.734,6.785,9.160,8.847,-4.398,-1.948,1.557,-0.143,0.987,-0.010,0.916,1.648,0.122,93.333,109928.000,1.000
9.704,2.251,6.292,10.107,7.710,-5.179,-2.235,2.005,-0.144,0.987,-0.008,1.007,1.770,0.092,93.333,109929.000,1.000
9.768,1.606,5.929,10.776,6.251,-5.885,-2.139,1.887,-0.144,0.990,-0.011,0.977,1.740,-0.122,93.333,109930.000,1.000
9.248,1.832,6.177,11.567,6.553,-4.756,-1.003,3.358,-0.143,0.989,-0.010,0.946,1.801,-0.122,93.333,109931.000,1.000
7.802,2.230,6.460,12.013,8.278,-2.145,0.797,6.214,-0.143,0.990,-0.010,0.916,1.862,-0.305,93.333,109932.000,1.000
5.641,2.087,5.630,11.109,8.935,-0.562,2.211,8.017,-0.143,0.991,-0.010,0.946,1.923,-0.458,93.333,109933.000,1.000
3.339,1.318,3.731,9.066,7.915,-0.972,2.709,8.028,-0.144,0.990,-0.012,0.885,2.014,-0.427,93.333,109934.000,1.000
1.449,0.363,2.056,7.405,7.183,-1.703,2.603,8.035,-0.145,0.990,-0.011,0.916,2.014,-0.519,93.333,109935.000,1.000
0.269,-0.400,1.294,6.942,7.524,-1.764,2.180,8.789,-0.147,0.989,-0.009,0.916,2.014,-0.580,93.333,109936.000,1.000
-0.147,-0.835,0.942,7.076,7.390,-2.367,1.505,8.877,-0.148,0.990,-0.007,0.977,1.923,-0.610,93.333,109937.000,1.000
-0.001,-0.808,0.711,7.316,6.283,-4.029,1.094,7.993,-0.147,0.987,-0.009,0.977,1.831,-0.580,93.333,109938.000,1.000
0.221,-0.273,1.000,7.995,5.991,-5.025,1.720,8.101,-0.150,0.986,-0.008,0.885,1.831,-0.580,93.333,109939.000,1.000
0.162,0.550,1.794,9.100,7.381,-4.153,3.460,10.189,-0.150,0.986,-0.009,0.946,1.770,-0.641,93.333,109940.000,1.000
0.139,1.520,2.502,9.861,8.965,-2.561,5.781,12.732,-0.151,0.987,-0.009,1.007,1.709,-0.610,93.333,109941.000,1.000
0.748,2.803,3.097,9.922,9.810,-1.413,8.331,14.522,-0.152,0.987,-0.008,1.038,1.617,-0.641,93.333,109942.000,1.000
1.889,4.397,4.189,9.770,11.112,-0.052,10.843,16.346,-0.152,0.988,-0.009,1.099,1.495,-0.519,93.333,109943.000,1.000
2.732,5.764,5.674,9.524,13.364,1.858,12.534,18.461,-0.153,0.989,-0.010,1.068,1.434,-0.427,93.333,109944.000,1.000
2.623,6.246,6.368,8.371,14.427,2.504,12.473,18.979,-0.153,0.987,-0.005,1.160,1.221,-0.305,93.333,109945.000,1.000
1.632,5.721,5.546,5.928,12.570,0.470,10.720,16.767,-0.154,0.988,-0.007,1.129,1.068,-0.244,93.333,109946.000,1.000
0.354,4.793,4.088,3.314,9.535,-2.412,8.619,13.990,-0.153,0.988,-0.005,1.129,0.977,-0.214,93.333,109947.000,1.000
-0.554,4.321,3.311,1.912,8.094,-3.289,7.521,13.333,-0.151,0.988,-0.004,1.190,0.946,-0.092,93.333,109948.000,1.000
-0.710,4.733,3.332,1.745,8.129,-2.225,7.523,14.293,-0.151,0.988,-0.012,1.221,0.763,-0.031,93.333,109949.000,1.000
-0.261,5.713,3.400,1.996,7.762,-1.374,7.791,14.656,-0.151,0.987,-0.006,1.221,0.610,0.122,93.333,109950.000,1.000
0.048,6.371,3.119,2.351,6.808,-1.379,7.527,14.036,-0.150,0.988,-0.010,1.221,0.671,0.153,93.333,109951.000,1.000
-0.568,5.869,2.451,2.788,6.239,-1.303,6.296,13.352,-0.148,0.987,-0.010,1.251,0.610,0.153,93.333,109952.000,1.000
-2.042,4.200,1.187,2.812,5.487,-1.319,4.111,12.225,-0.146,0.989,-0.009,1.312,0.580,0.153,93.333,109953.000,1.000
-3.381,2.376,-0.545,2.069,3.368,-2.528,1.728,9.863,-0.145,0.990,-0.010,1.373,0.641,0.275,93.333,109954.000,1.000
-3.577,1.599,-1.663,1.324,0.960,-4.313,0.378,7.643,-0.146,0.988,-0.006,1.312,0.641,0.305,93.333,109955.000,1.000
-2.469,2.090,-1.243,1.547,0.431,-4.818,0.496,7.638,-0.147,0.987,-0.006,1.343,0.641,0.336,93.333,109956.000,1.000
-0.720,2.807,-0.087,2.269,1.269,-4.225,1.013,8.946,-0.144,0.989,-0.009,1.373,0.702,0.458,93.333,109957.000,1.000
0.790,2.486,-0.003,2.164,0.795,-4.748,0.494,8.582,-0.143,0.989,-0.010,1.343,0.854,0.397,93.333,109958.000,1.000
1.485,0.812,-1.529,1.154,-1.588,-7.012,-1.306,5.975,-0.142,0.987,-0.007,1.343,0.854,0.397,93.333,109959.000,1.000
1.335,-1.480,-3.527,0.565,-3.716,-9.143,-3.513,3.565,-0.141,0.988,-0.008,1.404,0.916,0.366,93.333,109960.000,1.000
0.830,-3.381,-4.964,1.086,-4.508,-10.006,-5.362,2.700,-0.140,0.987,-0.011,1.343,1.038,0.275,93.333,109961.000,1.000
0.626,-4.271,-5.876,1.925,-5.331,-10.638,-6.699,2.089,-0.141,0.989,-0.011,1.373,1.099,0.214,93.333,109962.000,1.000
0.975,-4.102,-6.429,2.258,-6.790,-11.529,-7.463,1.000,-0.141,0.991,-0.012,1.404,1.099,0.122,93.333,109963.000,1.000
1.456,-3.370,-6.463,2.098,-7.387,-11.330,-7.595,0.709,-0.139,0.991,-0.014,1.312,1.129,0.031,93.333,109964.000,1.000
1.379,-2.940,-6.400,1.345,-6.701,-9.639,-7.562,1.528,-0.138,0.990,-0.010,1.312,1.312,0.031,93.333,109965.000,1.000
0.556,-3.409,-7.213,-0.495,-6.752,-8.374,-7.992,1.562,-0.139,0.991,-0.011,1.251,1.373,-0.031,93.333,109966.000,1.000
-0.488,-4.469,-8.835,-2.974,-8.466,-8.665,-8.617,0.059,-0.139,0.991,-0.010,1.251,1.434,-0.183,93.333,109967.000,1.000
-1.150,-5.269,-9.832,-4.507,-9.681,-8.874,-8.437,-0.867,-0.140,0.991,-0.011,1.251,1.556,-0.122,93.333,109968.000,1.000
-1.353,-5.347,-9.330,-4.299,-8.614,-7.494,-7.113,0.349,-0.140,0.990,-0.012,1.190,1.709,-0.183,93.333,109969.000,1.000
-1.351,-4.855,-8.141,-3.341,-6.719,-5.821,-5.422,2.085,-0.140,0.990,-0.013,1.129,1.831,-0.366,93.333,109970.000,1.000
-1.416,-4.139,-7.408,-2.913,-6.124,-5.815,-4.334,2.197,-0.141,0.988,-0.012,1.129,1.862,-0.488,93.333,109971.000,1.000
-1.906,-3.567,-7.206,-3.095,-6.440,-7.016,-4.234,1.207,-0.143,0.987,-0.012,1.129,1.953,-0.427,93.333,109972.000,1.000
-3.118,-3.485,-7.126,-3.340,-6.296,-7.645,-4.981,0.762,-0.144,0.989,-0.011,1.190,1.801,-0.427,93.333,109973.000,1.000
-4.902,-4.014,-7.358,-3.662,-6.278,-7.580,-6.191,0.630,-0.143,0.990,-0.012,1.221,1.984,-0.427,93.333,109974.000,1.000
-6.721,-4.923,-8.267,-4.344,-7.672,-7.927,-7.287,-0.264,-0.144,0.989,-0.010,1.160,1.984,-0.488,93.333,109975.000,1.000
-8.103,-5.750,-9.377,-4.970,-9.485,-8.401,-7.623,-1.079,-0.145,0.988,-0.012,1.190,1.892,-0.366,93.333,109976.000,1.000
-8.888,-6.067,-9.812,-4.906,-9.640,-7.700,-6.956,-0.173,-0.148,0.989,-0.012,1.160,1.923,-0.366,93.333,109977.000,1.000
-9.138,-5.662,-9.535,-4.480,-8.413,-6.151,-5.698,1.796,-0.149,0.989,-0.012,1.221,1.862,-0.397,93.333,109978.000,1.000
-9.093,-4.600,-9.168,-4.548,-7.767,-5.399,-4.451,2.680,-0.148,0.989,-0.010,1.251,1.770,-0.427,93.333,109979.000,1.000
-9.247,-3.304,-8.877,-5.141,-7.887,-5.566,-3.483,2.248,-0.149,0.989,-0.012,1.251,1.709,-0.427,93.333,109980.000,1.000
-10.115,-2.476,-8.452,-5.654,-7.318,-5.224,-2.884,2.035,-0.150,0.989,-0.011,1.251,1.740,-0.427,93.333,109981.000,1.000
-11.555,-2.522,-8.115,-6.010,-6.107,-4.184,-2.746,2.287,-0.150,0.987,-0.012,1.312,1.617,-0.336,93.333,109982.000,1.000
-12.566,-2.979,-8.139,-6.442,-5.762,-3.782,-2.831,1.907,-0.149,0.987,-0.012,1.404,1.587,-0.305,93.333,109983.000,1.000
-12.156,-2.921,-7.960,-6.429,-6.209,-4.248,-2.665,1.219,-0.151,0.987,-0.012,1.373,1.465,-0.183,93.333,109984.000,1.000
-10.286,-2.003,-6.728,-5.126,-5.703,-4.275,-2.275,1.876,-0.149,0.990,-0.012,1.404,1.373,-0.153,93.333,109985.000,1.000
-7.751,-0.747,-4.668,-2.803,-4.068,-3.622,-2.255,3.819,-0.148,0.990,-0.011,1.282,1.312,-0.122,93.333,109986.000,1.000
-5.412,0.155,-2.909,-0.737,-3.229,-3.766,-2.827,5.046,-0.147,0.988,-0.012,1.373,1.312,-0.122,93.333,109987.000,1.000
-3.893,0.447,-2.009,0.403,-3.909,-5.203,-3.347,4.940,-0.148,0.988,-0.013,1.373,1.251,-0.092,93.333,109988.000,1.000
-3.726,0.141,-1.663,0.934,-4.493,-6.397,-3.128,5.133,-0.149,0.988,-0.013,1.312,1.221,-0.031,93.333,109989.000,1.000
-5.111,-0.718,-1.806,0.928,-4.082,-6.391,-2.331,6.325,-0.148,0.989,-0.012,1.434,1.099,0.000,93.333,109990.000,1.000
-7.458,-1.849,-2.818,-0.069,-3.953,-6.231,-1.514,7.010,-0.148,0.988,-0.014,1.465,1.007,-0.153,93.333,109991.000,1.000
-9.648,-2.667,-4.385,-1.725,-4.722,-6.521,-0.594,6.552,-0.146,0.990,-0.012,1.465,1.038,-0.061,93.333,109992.000,1.000
-10.870,-2.774,-5.316,-2.643,-4.707,-5.797,1.041,6.858,-0.144,0.988,-0.012,1.556,1.038,0.031,93.333,109993.000,1.000
-11.043,-2.468,-5.119,-2.153,-2.958,-3.173,3.308,9.093,-0.145,0.988,-0.011,1.526,1.038,0.061,93.333,109994.000,1.000
-10.557,-2.509,-4.815,-1.381,-1.488,-0.578,5.091,11.124,-0.144,0.989,-0.011,1.434,1.038,-0.031,93.333,109995.000,1.000
-9.865,-3.275,-5.366,-1.583,-2.206,-0.046,5.597,10.644,-0.146,0.990,-0.012,1.526,1.068,-0.031,93.333,109996.000,1.000
-9.275,-4.393,-6.219,-2.344,-3.764,-0.548,5.331,8.753,-0.144,0.989,-0.012,1.495,1.007,-0.092,93.333,109997.000,1.000
-8.914,-5.327,-6.424,-2.560,-4.058,-0.038,5.083,7.706,-0.142,0.988,-0.014,1.526,1.068,-0.092,93.333,109998.000,1.000
-8.670,-5.854,-6.207,-2.251,-3.860,0.988,4.814,7.117,-0.142,0.989,-0.014,1.587,1.068,-0.092,93.333,109999.000,1.000
-8.198,-5.779,-6.124,-1.989,-4.908,0.835,4.388,5.560,-0.142,0.988,-0.011,1.556,1.007,-0.183,93.333,110000.000,1.000
-7.192,-4.829,-5.618,-1.385,-6.170,0.054,4.465,4.160,-0.142,0.990,-0.015,1.373,1.068,-0.275,93.333,110001.000,1.000
-5.701,-3.211,-3.878,0.289,-5.389,0.412,5.637,5.115,-0.143,0.988,-0.016,1.434,1.068,-0.397,93.333,110002.000,1.000
-4.007,-1.674,-1.457,2.507,-3.083,1.403,7.347,7.807,-0.141,0.987,-0.015,1.434,1.129,-0.366,93.333,110003.000,1.000
-2.274,-0.682,0.390,4.081,-1.622,0.943,8.627,9.740,-0.141,0.987,-0.017,1.434,1.190,-0.427,93.333,110004.000,1.000
-0.587,-0.033,1.440,4.933,-1.224,-0.979,9.303,10.515,-0.142,0.988,-0.017,1.434,1.282,-0.458,93.333,110005.000,1.000
0.738,0.456,2.206,5.777,-0.302,-2.434,9.604,11.541,-0.146,0.989,-0.016,1.404,1.251,-0.549,93.333,110006.000,1.000
1.284,0.460,2.441,6.398,0.774,-3.150,9.151,12.360,-0.146,0.991,-0.014,1.373,1.343,-0.580,93.333,110007.000,1.000
0.959,-0.326,1.372,5.785,-0.215,-4.889,7.350,10.746,-0.146,0.990,-0.015,1.343,1.465,-0.549,93.333,110008.000,1.000
-0.080,-1.707,-0.837,3.841,-3.474,-8.025,4.406,6.502,-0.147,0.989,-0.013,1.343,1.465,-0.580,93.333,110009.000,1.000
-1.788,-3.351,-3.167,1.545,-6.694,-10.743,1.108,2.046,-0.147,0.987,-0.014,1.282,1.434,-0.702,93.333,110010.000,1.000
-4.066,-5.091,-5.120,-0.558,-8.681,-12.132,-1.988,-1.152,-0.148,0.988,-0.014,1.282,1.465,-0.732,93.333,110011.000,1.000
-6.331,-6.593,-6.807,-2.689,-10.450,-13.257,-4.512,-3.773,-0.147,0.989,-0.014,1.251,1.404,-0.763,93.333,110012.000,1.000
-7.756,-7.295,-7.812,-4.596,-12.186,-14.440,-5.884,-5.855,-0.147,0.988,-0.014,1.190,1.343,-0.702,93.333,110013.000,1.000
-7.946,-6.997,-7.294,-5.349,-12.240,-14.191,-5.746,-5.829,-0.148,0.990,-0.015,1.221,1.343,-0.702,93.333,110014.000,1.000
-7.014,-6.133,-5.350,-4.670,-10.191,-11.949,-4.572,-3.439,-0.149,0.989,-0.017,1.190,1.343,-0.732,93.333,110015.000,1.000
-5.069,-5.164,-3.112,-3.283,-8.072,-9.441,-3.138,-0.831,-0.150,0.989,-0.014,1.221,1.343,-0.732,93.333,110016.000,1.000
-2.233,-4.110,-1.298,-1.623,-7.204,-7.996,-1.584,0.628,-0.149,0.989,-0.013,1.251,1.190,-0.702,93.333,110017.000,1.000
0.893,-2.839,0.382,0.635,-6.348,-6.643,0.333,2.148,-0.150,0.986,-0.015,1.160,1.251,-0.702,93.333,110018.000,1.000
3.416,-1.378,2.168,3.371,-4.438,-4.307,2.371,4.697,-0.152,0.987,-0.017,1.160,1.251,-0.641,93.333,110019.000,1.000
4.912,0.272,3.620,5.480,-2.689,-1.989,3.970,6.858,-0.152,0.989,-0.015,1.099,1.190,-0.549,93.333,110020.000,1.000
5.533,2.192,4.454,6.178,-2.185,-0.902,5.111,7.314,-0.152,0.989,-0.016,1.129,1.099,-0.427,93.333,110021.000,1.000
5.401,4.101,5.028,5.881,-1.660,-0.208,6.160,7.201,-0.151,0.991,-0.016,1.068,1.099,-0.366,93.333,110022.000,1.000
4.468,5.170,5.428,5.160,0.125,1.189,6.897,7.842,-0.152,0.990,-0.017,1.068,1.007,-0.336,93.333,110023.000,1.000
3.039,4.739,4.953,3.770,1.762,2.092,6.599,8.135,-0.152,0.990,-0.015,1.068,0.977,-0.244,93.333,110024.000,1.000
1.762,3.020,3.129,1.485,1.316,0.725,5.165,6.541,-0.151,0.988,-0.015,0.977,0.885,-0.336,93.333,110025.000,1.000
0.862,0.762,0.557,-0.931,-0.469,-2.113,3.424,4.120,-0.151,0.988,-0.016,1.038,0.854,-0.244,93.333,110026.000,1.000
-0.055,-1.414,-1.789,-2.499,-1.536,-4.049,2.178,3.031,-0.151,0.988,-0.012,0.946,0.793,-0.153,93.333,110027.000,1.000
-1.230,-3.121,-3.584,-3.309,-1.916,-4.553,1.435,3.077,-0.150,0.989,-0.012,0.885,0.732,-0.092,93.333,110028.000,1.000
-2.274,-4.003,-4.850,-4.057,-3.110,-4.924,0.815,2.438,-0.149,0.988,-0.011,0.946,0.793,-0.153,93.333,110029.000,1.000
-2.615,-3.788,-5.115,-4.610,-4.733,-5.304,0.312,1.216,-0.148,0.987,-0.013,1.038,0.702,-0.092,93.333,110030.000,1.000
-2.133,-2.657,-3.948,-4.256,-4.850,-4.478,0.094,1.197,-0.148,0.988,-0.014,1.038,0.671,-0.122,93.333,110031.000,1.000
-1.193,-1.370,-2.163,-3.264,-3.538,-2.707,-0.149,2.307,-0.150,0.987,-0.013,0.977,0.610,-0.092,93.333,110032.000,1.000
-0.141,-0.586,-1.157,-2.719,-2.917,-1.847,-0.852,2.516,-0.150,0.987,-0.014,0.977,0.641,-0.031,93.333,110033.000,1.000
0.922,-0.256,-1.078,-2.765,-3.402,-2.194,-1.800,1.435,-0.148,0.986,-0.014,0.946,0.610,-0.092,93.333,110034.000,1.000
1.835,-0.052,-0.906,-2.483,-3.154,-1.990,-2.451,0.883,-0.147,0.988,-0.015,0.916,0.549,-0.122,93.333,110035.000,1.000
2.313,0.029,-0.231,-1.613,-1.686,-0.661,-2.714,1.482,-0.147,0.990,-0.016,0.916,0.671,-0.061,93.333,110036.000,1.000
2.306,-0.019,0.451,-0.921,-0.718,0.193,-2.638,1.823,-0.145,0.988,-0.012,0.854,0.641,-0.092,93.333,110037.000,1.000
2.008,0.192,1.089,-0.662,-0.723,-0.110,-1.807,1.610,-0.145,0.989,-0.015,0.763,0.671,-0.061,93.333,110038.000,1.000
1.474,0.851,2.160,-0.202,-0.006,-0.048,-0.027,2.441,-0.145,0.988,-0.013,0.854,0.702,-0.031,93.333,110039.000,1.000
0.770,1.378,3.314,0.536,1.732,1.107,1.694,4.449,-0.144,0.989,-0.013,0.885,0.763,-0.092,93.333,110040.000,1.000
0.455,1.116,3.468,0.766,2.226,1.676,2.034,5.320,-0.145,0.989,-0.014,0.946,0.732,-0.092,93.333,110041.000,1.000
1.227,0.170,2.463,0.371,0.372,0.486,1.039,4.009,-0.145,0.990,-0.014,0.885,0.916,-0.122,93.333,110042.000,1.000
3.061,-0.932,1.386,0.413,-1.774,-1.005,-0.075,2.583,-0.147,0.990,-0.014,0.793,0.977,-0.183,93.333,110043.000,1.000
5.280,-1.859,1.065,1.626,-2.220,-1.133,-0.509,2.883,-0.146,0.990,-0.013,0.854,0.946,-0.275,93.333,110044.000,1.000
7.432,-2.391,1.266,3.513,-1.812,-0.605,-0.408,3.828,-0.147,0.988,-0.012,0.671,0.946,-0.305,93.333,110045.000,1.000
9.560,-2.270,1.685,5.427,-2.005,-0.797,-0.052,3.822,-0.146,0.989,-0.015,0.763,1.038,-0.305,93.333,110046.000,1.000
11.610,-1.496,2.688,7.547,-2.034,-1.077,0.621,3.679,-0.147,0.990,-0.014,0.702,1.190,-0.397,93.333,110047.000,1.000
13.142,-0.558,4.346,9.952,-0.723,-0.131,1.525,4.815,-0.147,0.990,-0.012,0.763,1.190,-0.366,93.333,110048.000,1.000
13.903,0.002,5.680,11.736,0.687,1.243,2.134,6.347,-0.146,0.989,-0.011,0.610,1.160,-0.305,93.333,110049.000,1.000
14.251,0.210,5.912,12.225,0.422,1.362,2.196,6.704,-0.147,0.989,-0.010,0.610,1.129,-0.366,93.333,110050.000,1.000
14.576,0.363,5.618,12.210,-0.591,0.699,2.175,6.658,-0.149,0.990,-0.012,0.580,1.160,-0.305,93.333,110051.000,1.000
14.684,0.167,5.609,12.760,-0.370,0.885,2.379,7.805,-0.149,0.988,-0.011,0.549,1.160,-0.336,93.333,110052.000,1.000
14.262,-0.958,5.582,13.643,0.585,1.585,2.389,9.343,-0.148,0.989,-0.011,0.580,1.221,-0.214,93.333,110053.000,1.000
13.545,-2.765,4.929,14.031,0.392,1.163,1.908,9.324,-0.147,0.987,-0.010,0.580,1.221,-0.244,93.333,110054.000,1.000
12.956,-4.201,4.065,13.998,-0.633,-0.151,1.384,8.132,-0.147,0.988,-0.010,0.580,1.221,-0.275,93.333,110055.000,1.000
12.437,-4.569,3.840,14.142,-0.546,-0.562,1.212,7.735,-0.149,0.988,-0.012,0.610,1.251,-0.214,93.333,110056.000,1.000
11.573,-4.155,4.090,14.146,0.557,-0.071,0.927,8.023,-0.148,0.987,-0.010,0.519,1.282,-0.092,93.333,110057.000,1.000
10.105,-3.750,3.828,12.969,0.489,-0.734,-0.165,6.907,-0.148,0.988,-0.011,0.580,1.221,-0.122,93.333,110058.000,1.000
8.068,-3.863,2.800,10.558,-1.217,-3.072,-1.826,4.170,-0.149,0.988,-0.009,0.641,1.251,-0.061,93.333,110059.000,1.000
5.805,-4.360,1.845,8.261,-2.396,-4.896,-3.026,2.239,-0.148,0.987,-0.009,0.580,1.160,0.000,93.333,110060.000,1.000
3.903,-4.754,1.475,7.076,-1.926,-4.710,-3.240,2.333,-0.148,0.988,-0.008,0.671,1.251,0.061,93.333,110061.000,1.000
2.694,-4.787,1.055,6.429,-1.447,-3.676,-2.912,2.729,-0.149,0.987,-0.009,0.732,1.312,0.061,93.333,110062.000,1.000
1.826,-4.712,-0.086,5.340,-2.228,-2.952,-2.464,2.089,-0.150,0.988,-0.010,0.732,1.282,0.153,93.333,110063.000,1.000
0.618,-5.082,-1.697,3.743,-3.169,-1.778,-1.721,1.621,-0.150,0.990,-0.010,0.763,1.221,0.122,93.333,110064.000,1.000
-1.145,-6.275,-3.368,1.930,-3.432,0.159,-0.569,2.350,-0.148,0.987,-0.010,0.763,1.160,0.153,93.333,110065.000,1.000
-2.921,-8.055,-5.209,-0.161,-4.255,1.095,0.674,3.042,-0.148,0.987,-0.008,0.763,1.160,0.214,93.333,110066.000,1.000
-3.904,-9.591,-7.015,-2.127,-6.233,-0.069,1.922,2.818,-0.149,0.987,-0.007,0.763,1.221,0.122,93.333,110067.000,1.000
-3.780,-10.162,-7.813,-2.685,-7.381,-1.544,3.589,3.290,-0.149,0.987,-0.010,0.763,1.160,0.153,93.333,110068.000,1.000
-3.006,-9.812,-7.150,-1.254,-6.128,-1.336,5.765,5.767,-0.147,0.990,-0.010,0.732,1.251,0.153,93.333,110069.000,1.000
-2.280,-9.116,-5.897,1.007,-3.984,-0.195,7.778,8.540,-0.146,0.987,-0.011,0.793,1.129,0.214,93.333,110070.000,1.000
-1.823,-8.361,-4.863,2.866,-2.813,0.410,9.078,9.493,-0.148,0.989,-0.010,0.854,1.129,0.183,93.333,110071.000,1.000
-1.343,-7.323,-3.535,4.674,-1.622,1.363,9.866,9.379,-0.149,0.989,-0.012,0.824,1.038,0.092,93.333,110072.000,1.000
-0.673,-5.889,-1.330,7.042,1.149,4.179,10.354,9.852,-0.147,0.990,-0.011,0.854,0.977,0.153,93.333,110073.000,1.000
-0.097,-4.404,0.855,9.005,4.081,7.764,10.249,10.208,-0.147,0.990,-0.013,0.824,0.977,0.153,93.333,110074.000,1.000
-0.011,-3.139,1.701,9.102,4.740,9.845,9.615,9.052,-0.146,0.988,-0.013,0.885,1.038,0.122,93.333,110075.000,1.000
-0.646,-1.932,1.301,7.530,3.650,10.502,9.374,7.556,-0.147,0.989,-0.009,0.916,1.160,0.214,93.333,110076.000,1.000
-2.016,-0.587,0.722,5.734,3.162,11.502,10.281,7.960,-0.148,0.989,-0.011,0.916,1.007,0.244,93.333,110077.000,1.000
-3.739,0.857,0.450,4.484,3.568,12.997,12.019,9.898,-0.148,0.990,-0.010,0.977,1.007,0.214,93.333,110078.000,1.000
-5.186,2.270,0.286,3.559,3.329,13.529,13.645,11.025,-0.149,0.989,-0.009,0.916,1.068,0.122,93.333,110079.000,1.000
-6.259,3.275,0.092,2.705,2.155,12.731,14.256,10.483,-0.144,0.988,-0.008,0.916,1.007,0.244,93.333,110080.000,1.000
-7.651,3.144,-0.317,1.700,0.957,11.477,13.054,9.126,-0.144,0.988,-0.010,1.038,0.977,0.183,93.333,110081.000,1.000
-9.895,1.448,-1.556,-0.149,-0.724,9.610,9.628,6.910,-0.146,0.989,-0.013,0.946,1.068,0.122,93.333,110082.000,1.000
-12.537,-1.310,-3.966,-3.339,-4.289,6.033,4.594,2.961,-0.144,0.990,-0.012,0.977,1.099,0.183,93.333,110083.000,1.000
-14.583,-4.084,-6.665,-7.006,-8.998,1.327,-0.497,-1.761,-0.144,0.988,-0.010,1.007,1.160,0.183,93.333,110084.000,1.000
-15.403,-6.167,-8.184,-9.478,-12.158,-2.198,-4.429,-4.778,-0.145,0.987,-0.010,1.129,1.190,0.122,93.333,110085.000,1.000
-14.977,-7.490,-8.136,-10.216,-12.984,-3.810,-7.358,-5.759,-0.145,0.986,-0.014,1.099,1.312,0.122,93.333,110086.000,1.000
-13.543,-8.155,-7.366,-10.119,-13.491,-5.264,-10.150,-7.055,-0.143,0.988,-0.014,1.160,1.251,0.153,93.333,110087.000,1.000
-11.402,-8.075,-6.428,-9.768,-14.732,-7.498,-12.919,-9.709,-0.146,0.989,-0.013,1.282,1.282,0.092,93.333,110088.000,1.000
-9.092,-7.343,-5.127,-8.783,-15.225,-9.059,-15.031,-11.879,-0.145,0.989,-0.016,1.343,1.343,0.092,93.333,110089.000,1.000
-7.285,-6.557,-3.749,-7.243,-14.309,-8.984,-16.315,-12.327,-0.146,0.988,-0.010,1.343,1.312,0.122,93.333,110090.000,1.000
-6.261,-6.236,-3.334,-6.222,-13.918,-8.723,-17.258,-12.551,-0.145,0.987,-0.009,1.373,1.282,-0.031,93.333,110091.000,1.000
-5.841,-6.285,-4.286,-6.376,-15.438,-9.707,-18.158,-13.981,-0.144,0.988,-0.009,1.282,1.221,0.000,93.333,110092.000,1.000
-5.939,-6.457,-5.835,-7.213,-17.513,-11.269,-19.056,-15.731,-0.145,0.990,-0.012,1.343,1.312,-0.092,93.333,110093.000,1.000
-6.612,-6.838,-7.176,-8.180,-18.602,-12.521,-20.201,-16.687,-0.143,0.988,-0.012,1.434,1.343,-0.092,93.333,110094.000,1.000
-7.475,-7.407,-8.142,-9.307,-19.277,-14.225,-21.651,-17.447,-0.140,0.989,-0.011,1.404,1.312,-0.122,93.333,110095.000,1.000
-7.891,-7.742,-8.635,-10.468,-20.302,-17.041,-22.772,-18.582,-0.141,0.991,-0.013,1.282,1.373,-0.153,93.333,110096.000,1.000
-7.987,-7.663,-8.478,-11.143,-20.668,-19.656,-22.967,-19.008,-0.143,0.992,-0.010,1.221,1.465,-0.183,93.333,110097.000,1.000
-8.635,-7.594,-8.101,-11.345,-19.516,-20.519,-22.532,-17.907,-0.142,0.991,-0.012,1.282,1.404,-0.214,93.333,110098.000,1.000
-10.171,-7.874,-8.486,-11.913,-18.242,-20.186,-22.162,-16.650,-0.143,0.992,-0.015,1.221,1.495,-0.183,93.333,110099.000,1.000
-11.954,-8.332,-9.978,-13.335,-18.521,-20.056,-21.872,-16.814,-0.142,0.991,-0.016,1.099,1.526,-0.214,93.333,110100.000,1.000
-13.399,-8.834,-11.742,-14.872,-19.491,-19.885,-21.038,-17.474,-0.143,0.988,-0.013,1.160,1.556,-0.183,93.333,110101.000,1.000
-14.584,-9.620,-12.767,-15.502,-19.240,-18.645,-19.482,-16.771,-0.145,0.987,-0.013,1.190,1.617,-0.214,93.333,110102.000,1.000
-15.632,-10.741,-12.951,-15.256,-18.098,-17.084,-17.932,-15.188,-0.146,0.984,-0.013,1.221,1.617,-0.153,93.333,110103.000,1.000
-16.261,-11.715,-12.725,-14.871,-17.876,-16.989,-17.124,-14.689,-0.146,0.985,-0.016,1.251,1.587,-0.214,93.333,110104.000,1.000
-16.252,-12.058,-12.099,-14.526,-18.474,-18.171,-16.998,-15.281,-0.147,0.985,-0.011,1.312,1.526,-0.244,93.333,110105.000,1.000
-15.812,-11.831,-10.884,-13.898,-18.121,-18.685,-17.154,-15.208,-0.146,0.988,-0.012,1.282,1.495,-0.336,93.333,110106.000,1.000
-15.254,-11.471,-9.624,-13.246,-16.754,-18.110,-17.491,-14.275,-0.146,0.986,-0.012,1.190,1.495,-0.305,93.333,110107.000,1.000
-14.689,-11.245,-9.216,-13.283,-16.170,-18.007,-17.904,-14.049,-0.145,0.985,-0.011,1.282,1.404,-0.305,93.333,110108.000,1.000
-14.159,-11.032,-9.537,-13.890,-16.567,-18.796,-17.823,-14.625,-0.144,0.986,-0.012,1.282,1.343,-0.336,93.333,110109.000,1.000
-13.866,-10.666,-9.545,-14.168,-16.028,-18.895,-16.764,-14.201,-0.145,0.987,-0.011,1.251,1.373,-0.366,93.333,110110.000,1.000
-14.002,-10.154,-8.850,-13.913,-14.018,-17.629,-15.001,-12.409,-0.146,0.987,-0.015,1.312,1.373,-0.305,93.333,110111.000,1.000
-14.460,-9.418,-8.066,-13.773,-12.352,-16.320,-13.085,-11.098,-0.145,0.988,-0.017,1.343,1.404,-0.275,93.333,110112.000,1.000
-15.010,-8.392,-7.688,-13.969,-12.055,-15.793,-11.254,-11.192,-0.145,0.988,-0.015,1.495,1.312,-0.214,93.333,110113.000,1.000
-15.592,-7.598,-7.812,-14.137,-12.193,-15.231,-9.903,-11.576,-0.144,0.991,-0.017,1.465,1.343,-0.214,93.333,110114.000,1.000
-16.016,-7.893,-8.777,-14.367,-12.497,-14.291,-9.841,-11.794,-0.145,0.992,-0.014,1.495,1.312,-0.122,93.333,110115.000,1.000
-15.614,-9.329,-10.837,-15.129,-14.276,-14.096,-11.325,-13.128,-0.145,0.992,-0.009,1.434,1.495,-0.122,93.333,110116.000,1.000
-13.701,-10.783,-13.058,-16.010,-17.505,-14.967,-13.316,-15.795,-0.146,0.992,-0.013,1.373,1.373,-0.061,93.333,110117.000,1.000
-10.330,-10.994,-13.642,-15.649,-19.534,-15.132,-14.412,-17.551,-0.148,0.993,-0.015,1.312,1.312,-0.061,93.333,110118.000,1.000
-6.360,-9.779,-11.933,-13.528,-18.600,-13.457,-14.416,-16.900,-0.149,0.992,-0.014,1.282,1.190,-0.122,93.333,110119.000,1.000
-2.870,-8.048,-9.318,-10.948,-16.568,-11.735,-14.440,-15.648,-0.150,0.993,-0.013,1.251,1.007,-0.183,93.333,110120.000,1.000
-0.729,-6.774,-7.474,-9.437,-15.954,-12.064,-15.288,-16.022,-0.147,0.992,-0.016,1.129,0.977,-0.275,93.333,110121.000,1.000
-0.481,-6.302,-6.639,-9.031,-16.248,-13.501,-16.488,-17.218,-0.148,0.994,-0.014,1.038,0.946,-0.366,93.333,110122.000,1.000
-2.132,-6.492,-6.346,-9.066,-15.731,-13.784,-17.313,-17.391,-0.147,0.993,-0.013,1.038,0.824,-0.488,93.333,110123.000,1.000
-4.833,-6.904,-6.653,-9.608,-14.868,-12.857,-17.741,-17.119,-0.146,0.992,-0.013,0.916,0.732,-0.580,93.333,110124.000,1.000
-7.127,-6.711,-7.468,-10.820,-14.904,-12.021,-17.866,-17.901,-0.145,0.992,-0.016,0.854,0.763,-0.549,93.333,110125.000,1.000
-7.839,-5.062,-7.619,-11.748,-14.702,-10.835,-17.289,-18.801,-0.146,0.991,-0.015,0.946,0.732,-0.519,93.333,110126.000,1.000
-6.797,-1.924,-5.981,-11.233,-12.214,-7.841,-15.748,-17.704,-0.145,0.990,-0.014,0.885,0.732,-0.549,93.333,110127.000,1.000
-4.705,1.727,-3.092,-9.577,-8.158,-3.696,-13.630,-14.900,-0.147,0.990,-0.012,0.793,0.702,-0.519,93.333,110128.000,1.000
-2.520,4.741,-0.503,-8.048,-5.119,-0.721,-11.362,-12.438,-0.145,0.990,-0.016,0.854,0.793,-0.397,93.333,110129.000,1.000
-1.105,6.438,0.984,-7.222,-3.711,0.391,-8.975,-10.705,-0.145,0.987,-0.016,0.854,0.916,-0.366,93.333,110130.000,1.000
-1.062,6.486,1.436,-6.987,-2.670,0.834,-6.806,-8.657,-0.145,0.985,-0.015,0.946,0.854,-0.366,93.333,110131.000,1.000
-2.419,4.801,0.715,-7.675,-2.271,0.796,-5.997,-7.049,-0.145,0.985,-0.014,0.977,0.916,-0.305,93.333,110132.000,1.000
-4.463,1.857,-1.396,-9.759,-4.246,-0.942,-7.439,-8.149,-0.145,0.985,-0.013,1.007,0.885,-0.244,93.333,110133.000,1.000
-6.058,-1.189,-3.918,-12.329,-7.953,-3.941,-10.314,-11.692,-0.145,0.987,-0.011,1.160,0.885,-0.305,93.333,110134.000,1.000
-6.284,-3.083,-4.941,-13.299,-9.987,-5.418,-12.515,-14.279,-0.145,0.988,-0.011,1.221,0.946,-0.275,93.333,110135.000,1.000
-4.953,-3.376,-3.785,-11.797,-8.798,-4.015,-12.714,-13.896,-0.147,0.988,-0.013,1.129,0.977,-0.275,93.333,110136.000,1.000
-2.647,-2.589,-1.748,-9.129,-6.686,-1.766,-11.267,-12.104,-0.146,0.987,-0.012,1.099,0.977,-0.275,93.333,110137.000,1.000
-0.390,-1.625,-0.384,-6.969,-6.026,-0.812,-9.151,-10.731,-0.148,0.988,-0.011,1.221,0.916,-0.214,93.333,110138.000,1.000
0.724,-1.353,-0.265,-6.016,-6.542,-0.654,-7.115,-9.531,-0.147,0.989,-0.012,1.160,0.916,-0.153,93.333,110139.000,1.000
0.121,-2.404,-1.566,-6.621,-7.626,-0.286,-5.847,-8.423,-0.147,0.987,-0.014,1.099,0.854,-0.214,93.333,110140.000,1.000
-1.765,-4.738,-4.399,-9.077,-10.236,-0.542,-5.831,-8.969,-0.146,0.987,-0.010,1.068,0.885,-0.183,93.333,110141.000,1.000
-3.807,-7.473,-7.981,-12.575,-14.458,-2.147,-6.682,-11.619,-0.146,0.989,-0.010,0.946,0.763,-0.214,93.333,110142.000,1.000
-5.102,-9.455,-10.627,-15.170,-17.763,-3.494,-7.341,-13.922,-0.148,0.988,-0.009,0.916,0.793,-0.183,93.333,110143.000,1.000
-5.491,-10.032,-11.365,-15.704,-18.077,-2.765,-7.230,-13.746,-0.146,0.987,-0.007,1.007,0.854,-0.275,93.333,110144.000,1.000
-5.257,-9.199,-10.785,-14.955,-16.622,-0.751,-6.607,-12.239,-0.147,0.987,-0.009,0.977,0.824,-0.183,93.333,110145.000,1.000
-4.587,-7.196,-9.618,-14.019,-15.356,0.780,-5.580,-11.270,-0.145,0.988,-0.008,0.946,0.854,-0.183,93.333,110146.000,1.000
-3.490,-4.397,-7.518,-12.596,-13.654,2.061,-3.762,-10.076,-0.143,0.990,-0.010,0.885,0.885,-0.244,93.333,110147.000,1.000
-2.002,-1.503,-4.164,-10.019,-10.208,4.159,-1.383,-7.279,-0.144,0.988,-0.010,0.854,0.916,-0.214,93.333,110148.000,1.000
-0.211,0.743,-0.538,-6.986,-6.349,6.135,0.376,-4.274,-0.143,0.989,-0.008,0.793,1.038,-0.244,93.333,110149.000,1.000
1.739,2.238,2.047,-4.862,-4.339,6.279,0.796,-3.413,-0.142,0.991,-0.008,0.793,0.977,-0.275,93.333,110150.000,1.000
3.487,3.476,3.519,-3.890,-3.717,5.298,0.484,-4.198,-0.144,0.991,-0.012,0.793,1.038,-0.275,93.333,110151.000,1.000
4.501,4.697,4.520,-3.477,-2.492,5.330,0.276,-4.426,-0.143,0.990,-0.010,0.824,1.160,-0.214,93.333,110152.000,1.000
4.447,5.514,4.903,-3.765,-1.043,6.265,0.077,-4.129,-0.144,0.988,-0.008,0.793,1.282,-0.244,93.333,110153.000,1.000
3.458,5.572,4.033,-5.440,-1.465,6.072,-0.511,-5.125,-0.145,0.987,-0.011,0.824,1.282,-0.214,93.333,110154.000,1.000
1.982,5.137,2.297,-8.125,-3.560,4.614,-1.120,-7.248,-0.145,0.987,-0.010,0.824,1.373,-0.183,93.333,110155.000,1.000
0.555,4.734,1.017,-10.420,-4.865,4.010,-1.035,-8.366,-0.145,0.986,-0.010,0.793,1.312,-0.214,93.333,110156.000,1.000
-0.172,4.666,0.883,-11.572,-4.585,5.045,-0.227,-8.058,-0.147,0.988,-0.010,0.885,1.312,-0.275,93.333,110157.000,1.000
0.384,5.106,1.537,-11.913,-4.305,6.210,0.776,-8.096,-0.147,0.988,-0.009,0.977,1.373,-0.275,93.333,110158.000,1.000
2.132,6.098,2.572,-11.681,-4.582,6.758,1.681,-9.036,-0.146,0.988,-0.012,1.007,1.343,-0.244,93.333,110159.000,1.000
4.116,7.183,3.823,-10.723,-4.055,7.812,2.413,-9.336,-0.148,0.989,-0.012,1.068,1.373,-0.366,93.333,110160.000,1.000
5.210,7.453,4.597,-9.596,-2.684,9.488,2.554,-8.618,-0.147,0.989,-0.010,1.068,1.404,-0.366,93.333,110161.000,1.000
4.954,6.406,3.823,-9.592,-2.721,9.716,1.583,-8.860,-0.147,0.990,-0.012,1.068,1.312,-0.366,93.333,110162.000,1.000
3.663,4.589,1.501,-11.071,-5.085,7.480,-0.217,-11.053,-0.147,0.988,-0.009,1.129,1.190,-0.397,93.333,110163.000,1.000
1.859,3.006,-1.090,-12.937,-7.688,4.696,-1.939,-13.469,-0.147,0.990,-0.012,1.221,1.190,-0.427,93.333,110164.000,1.000
-0.220,2.009,-3.136,-14.382,-9.015,3.062,-3.291,-14.856,-0.146,0.989,-0.013,1.251,1.221,-0.427,93.333,110165.000,1.000
-2.481,1.283,-5.045,-15.836,-10.428,1.549,-4.717,-16.511,-0.147,0.988,-0.010,1.312,1.251,-0.458,93.333,110166.000,1.000
-4.648,0.744,-6.990,-17.474,-12.994,-1.014,-6.220,-19.345,-0.146,0.988,-0.012,1.465,1.251,-0.427,93.333,110167.000,1.000
-6.300,0.687,-8.066,-18.253,-14.910,-3.335,-7.137,-21.541,-0.147,0.987,-0.012,1.495,1.343,-0.458,93.333,110168.000,1.000
-7.048,1.139,-7.658,-17.389,-14.416,-3.906,-7.187,-21.365,-0.148,0.988,-0.013,1.465,1.221,-0.336,93.333,110169.000,1.000
-6.559,1.715,-6.491,-15.626,-12.791,-3.769,-6.858,-20.022,-0.148,0.987,-0.014,1.587,1.312,-0.427,93.333,110170.000,1.000
-4.723,2.131,-5.504,-14.056,-11.954,-4.564,-6.421,-19.301,-0.147,0.987,-0.013,1.648,1.282,-0.397,93.333,110171.000,1.000
-1.980,2.360,-4.601,-12.660,-11.232,-5.532,-5.438,-18.418,-0.146,0.987,-0.013,1.709,1.190,-0.305,93.333,110172.000,1.000
0.627,2.195,-3.509,-11.246,-9.363,-5.198,-3.855,-16.099,-0.147,0.988,-0.013,1.801,1.190,-0.366,93.333,110173.000,1.000
1.862,1.135,-3.067,-10.906,-7.921,-4.651,-2.799,-14.044,-0.148,0.987,-0.014,1.892,1.282,-0.336,93.333,110174.000,1.000
0.932,-1.015,-4.373,-12.958,-9.473,-6.099,-3.476,-15.031,-0.148,0.987,-0.015,2.014,1.282,-0.275,93.333,110175.000,1.000
-2.066,-3.701,-7.073,-16.844,-13.361,-8.955,-5.740,-18.630,-0.149,0.988,-0.015,1.984,1.282,-0.244,93.333,110176.000,1.000
-6.166,-5.986,-9.662,-20.510,-16.441,-10.393,-8.264,-21.849,-0.149,0.988,-0.013,2.014,1.282,-0.244,93.333,110177.000,1.000
-9.866,-7.078,-11.075,-22.541,-17.283,-9.330,-9.610,-23.205,-0.150,0.989,-0.017,2.014,1.221,-0.275,93.333,110178.000,1.000
-11.657,-6.386,-10.898,-22.639,-16.588,-6.961,-8.703,-23.180,-0.148,0.989,-0.015,2.014,1.282,-0.305,93.333,110179.000,1.000
-10.881,-3.784,-8.724,-20.628,-14.252,-3.835,-5.144,-21.523,-0.147,0.989,-0.014,2.014,1.251,-0.275,93.333,110180.000,1.000
-8.229,-0.193,-4.755,-16.720,-9.571,0.398,-0.010,-17.612,-0.148,0.990,-0.016,1.953,1.190,-0.336,93.333,110181.000,1.000
-5.053,2.754,-0.621,-12.483,-4.183,4.435,4.267,-13.226,-0.146,0.991,-0.016,1.892,1.312,-0.275,93.333,110182.000,1.000
-2.267,4.015,1.758,-9.937,-1.380,5.703,5.798,-11.563,-0.145,0.990,-0.014,1.892,1.221,-0.305,93.333,110183.000,1.000
-0.259,3.762,2.027,-9.579,-2.020,3.884,4.751,-13.104,-0.147,0.992,-0.013,1.709,1.282,-0.336,93.333,110184.000,1.000
0.615,2.698,1.242,-10.347,-3.915,1.393,2.593,-15.215,-0.146,0.992,-0.013,1.648,1.373,-0.305,93.333,110185.000,1.000
0.161,1.356,0.157,-11.356,-5.618,-0.309,0.478,-16.140,-0.147,0.990,-0.013,1.587,1.312,-0.305,93.333,110186.000,1.000
-1.179,0.163,-1.253,-12.478,-7.887,-2.250,-1.057,-16.589,-0.148,0.990,-0.014,1.526,1.434,-0.244,93.333,110187.000,1.000
-2.573,-0.470,-2.720,-13.313,-10.763,-4.924,-1.569,-16.903,-0.150,0.991,-0.014,1.434,1.373,-0.275,93.333,110188.000,1.000
-3.550,-0.529,-3.467,-13.060,-12.320,-6.589,-0.993,-15.787,-0.150,0.992,-0.016,1.312,1.373,-0.244,93.333,110189.000,1.000
-4.230,-0.593,-3.475,-11.928,-11.870,-6.218,-0.340,-13.278,-0.148,0.990,-0.018,1.251,1.373,-0.305,93.333,110190.000,1.000
-4.864,-1.240,-3.803,-11.429,-11.620,-5.652,-1.044,-12.072,-0.147,0.988,-0.014,1.129,1.373,-0.275,93.333,110191.000,1.000
-5.389,-2.274,-4.985,-12.454,-13.158,-6.653,-3.283,-13.818,-0.146,0.986,-0.016,1.068,1.343,-0.336,93.333,110192.000,1.000
-5.591,-2.888,-6.156,-14.116,-14.769,-7.972,-5.723,-16.525,-0.146,0.984,-0.018,1.160,1.404,-0.305,93.333,110193.000,1.000
-5.515,-2.635,-6.473,-15.316,-14.426,-7.724,-7.166,-17.756,-0.144,0.982,-0.020,1.160,1.373,-0.275,93.333,110194.000,1.000
-5.347,-1.768,-6.317,-16.246,-13.056,-6.744,-7.625,-18.048,-0.146,0.984,-0.023,1.343,1.434,-0.244,93.333,110195.000,1.000
-5.049,-0.671,-6.278,-17.360,-12.410,-6.982,-7.604,-18.884,-0.145,0.988,-0.019,1.404,1.465,-0.214,93.333,110196.000,1.000
-4.460,0.484,-5.976,-18.034,-11.789,-8.155,-7.302,-19.524,-0.144,0.988,-0.021,1.373,1.495,-0.214,93.333,110197.000,1.000
-3.519,1.577,-4.735,-17.382,-9.590,-8.670,-6.877,-18.473,-0.145,0.988,-0.017,1.251,1.556,-0.153,93.333,110198.000,1.000
-2.104,2.628,-2.671,-15.617,-6.473,-8.652,-6.656,-16.498,-0.145,0.987,-0.019,1.251,1.587,-0.092,93.333,110199.000,1.000
-0.063,3.962,-0.327,-13.563,-4.223,-9.394,-6.687,-15.395,-0.147,0.988,-0.021,1.251,1.648,-0.061,93.333,110200.000,1.000
2.342,5.844,2.221,-11.363,-2.574,-10.520,-6.554,-14.812,-0.148,0.989,-0.021,1.282,1.648,-0.122,93.333,110201.000,1.000
4.460,7.997,5.058,-8.731,-0.053,-10.443,-5.993,-13.115,-0.153,0.991,-0.018,1.251,1.587,-0.153,93.333,110202.000,1.000
6.008,9.790,7.683,-6.055,2.740,-9.418,-5.433,-10.804,-0.154,0.994,-0.016,1.190,1.587,-0.153,93.333,110203.000,1.000
7.430,10.867,9.479,-4.062,3.676,-9.396,-5.511,-10.102,-0.153,0.997,-0.017,1.007,1.434,-0.305,93.333,110204.000,1.000
9.192,11.362,10.610,-2.666,2.633,-10.706,-6.240,-11.348,-0.150,0.997,-0.017,0.946,1.312,-0.244,93.333,110205.000,1.000
11.027,11.506,11.562,-1.360,1.524,-11.594,-7.169,-12.733,-0.150,0.995,-0.016,0.671,1.190,-0.275,93.333,110206.000,1.000
12.221,11.254,11.999,-0.579,0.786,-11.506,-8.220,-13.745,-0.149,0.992,-0.016,0.519,1.099,-0.366,93.333,110207.000,1.000
12.488,10.570,11.213,-1.256,-1.059,-11.911,-9.564,-15.690,-0.148,0.988,-0.015,0.519,1.129,-0.305,93.333,110208.000,1.000
12.233,9.812,9.583,-3.041,-3.957,-13.120,-10.781,-18.325,-0.148,0.986,-0.016,0.549,1.129,-0.275,93.333,110209.000,1.000
11.868,9.300,8.249,-4.506,-5.718,-13.315,-11.142,-19.317,-0.148,0.987,-0.016,0.580,1.099,-0.366,93.333,110210.000,1.000
11.394,8.873,7.450,-5.149,-5.639,-11.750,-10.635,-17.961,-0.148,0.986,-0.016,0.580,1.007,-0.305,93.333,110211.000,1.000
10.822,8.357,6.485,-5.687,-5.599,-10.070,-9.753,-16.315,-0.147,0.987,-0.017,0.549,1.007,-0.244,93.333,110212.000,1.000
10.369,7.964,5.219,-6.344,-6.541,-9.331,-8.513,-15.631,-0.147,0.988,-0.016,0.549,1.099,-0.122,93.333,110213.000,1.000
10.033,7.847,4.382,-6.310,-6.782,-8.278,-6.597,-14.540,-0.147,0.989,-0.020,0.610,1.099,-0.183,93.333,110214.000,1.000
9.543,7.799,4.314,-5.222,-5.136,-6.015,-4.272,-12.038,-0.148,0.990,-0.018,0.610,1.099,-0.122,93.333,110215.000,1.000
8.929,7.713,4.533,-3.932,-3.050,-4.049,-2.255,-9.536,-0.148,0.990,-0.016,0.580,1.068,-0.122,93.333,110216.000,1.000
8.622,7.932,4.850,-3.175,-1.853,-3.720,-0.619,-8.187,-0.151,0.988,-0.015,0.549,1.007,-0.031,93.333,110217.000,1.000
8.856,8.807,5.854,-2.535,-0.323,-3.637,1.341,-6.635,-0.151,0.989,-0.013,0.549,1.038,0.061,93.333,110218.000,1.000
9.260,10.063,7.605,-1.558,2.688,-2.093,3.791,-3.686,-0.150,0.990,-0.013,0.610,0.916,0.031,93.333,110219.000,1.000
9.155,10.902,8.755,-0.992,5.328,-0.390,5.659,-1.136,-0.150,0.989,-0.014,0.671,0.946,0.000,93.333,110220.000,1.000
8.140,10.803,7.989,-1.773,5.170,-0.983,5.830,-1.262,-0.149,0.989,-0.016,0.641,0.946,0.031,93.333,110221.000,1.000
6.347,9.937,5.704,-3.424,2.956,-3.546,4.464,-3.123,-0.149,0.988,-0.014,0.580,0.916,-0.031,93.333,110222.000,1.000
4.302,8.784,3.327,-4.711,1.177,-5.743,2.620,-4.153,-0.147,0.985,-0.014,0.580,0.885,-0.061,93.333,110223.000,1.000
2.693,7.737,1.623,-5.331,0.287,-6.909,1.163,-4.066,-0.145,0.987,-0.014,0.610,0.916,0.061,93.333,110224.000,1.000
2.094,7.069,0.619,-5.724,-0.796,-8.086,0.568,-4.242,-0.146,0.986,-0.012,0.671,0.885,0.122,93.333,110225.000,1.000
2.584,6.899,0.500,-5.734,-1.577,-9.080,1.131,-4.364,-0.146,0.988,-0.012,0.763,0.824,0.183,93.333,110226.000,1.000
3.609,7.002,1.330,-4.865,-0.641,-8.554,2.664,-2.936,-0.145,0.986,-0.013,0.854,0.793,0.153,93.333,110227.000,1.000
4.432,6.923,2.264,-3.509,1.189,-7.001,4.309,-0.561,-0.145,0.989,-0.008,0.824,0.977,0.153,93.333,110228.000,1.000
4.744,6.456,2.260,-2.600,1.571,-6.715,5.195,0.527,-0.146,0.989,-0.013,0.732,1.007,0.244,93.333,110229.000,1.000
4.666,5.838,1.468,-2.195,0.371,-8.311,5.123,0.034,-0.145,0.988,-0.013,0.732,1.038,0.214,93.333,110230.000,1.000
4.376,5.362,0.945,-1.579,-0.276,-9.848,4.443,-0.186,-0.145,0.986,-0.013,0.702,1.099,0.153,93.333,110231.000,1.000
4.055,5.044,1.129,-0.668,0.300,-10.109,3.579,0.453,-0.145,0.987,-0.013,0.610,1.068,0.214,93.333,110232.000,1.000
4.016,4.836,1.581,-0.106,0.513,-10.097,2.935,0.563,-0.146,0.989,-0.012,0.763,1.190,0.214,93.333,110233.000,1.000
4.558,4.967,2.174,0.112,-0.107,-10.348,3.004,-0.119,-0.146,0.989,-0.013,0.763,1.251,0.183,93.333,110234.000,1.000
5.662,5.678,3.336,0.833,0.142,-9.628,3.863,0.065,-0.146,0.988,-0.013,0.793,1.190,0.092,93.333,110235.000,1.000
6.994,6.726,4.921,2.278,1.822,-7.636,4.662,1.511,-0.146,0.987,-0.013,0.793,1.099,0.092,93.333,110236.000,1.000
8.237,7.529,5.993,3.556,2.971,-6.294,4.373,2.272,-0.146,0.987,-0.012,0.671,1.160,0.000,93.333,110237.000,1.000
9.244,7.791,6.138,4.086,2.446,-6.720,3.122,1.408,-0.144,0.987,-0.012,0.702,1.160,0.031,93.333,110238.000,1.000
9.858,7.625,5.961,4.341,1.891,-7.273,2.045,0.724,-0.144,0.988,-0.011,0.671,1.190,-0.153,93.333,110239.000,1.000
9.892,7.192,5.870,4.592,2.650,-6.314,1.803,1.547,-0.144,0.988,-0.012,0.641,1.190,-0.153,93.333,110240.000,1.000
9.385,6.656,5.413,4.133,3.351,-4.722,1.941,2.313,-0.145,0.992,-0.015,0.641,1.129,-0.183,93.333,110241.000,1.000
8.631,6.391,4.361,2.571,2.554,-3.809,1.836,1.358,-0.144,0.992,-0.014,0.580,1.190,-0.092,93.333,110242.000,1.000
7.750,6.677,3.321,0.716,1.362,-2.849,1.394,-0.275,-0.146,0.991,-0.015,0.610,1.251,-0.092,93.333,110243.000,1.000
6.642,7.357,2.773,-0.563,1.269,-0.772,0.762,-0.933,-0.144,0.990,-0.009,0.549,1.251,-0.183,93.333,110244.000,1.000
5.597,8.311,2.565,-1.201,1.709,1.625,0.309,-0.945,-0.145,0.988,-0.011,0.580,1.251,-0.244,93.333,110245.000,1.000
5.357,9.861,2.806,-1.058,1.923,3.301,0.846,-0.988,-0.147,0.990,-0.012,0.580,1.221,-0.183,93.333,110246.000,1.000
6.277,12.201,4.246,0.621,3.246,5.208,3.024,0.128,-0.145,0.989,-0.013,0.610,1.190,-0.183,93.333,110247.000,1.000
7.884,14.788,7.156,4.012,7.028,8.587,6.400,3.610,-0.145,0.990,-0.012,0.549,1.221,-0.183,93.333,110248.000,1.000
9.412,16.733,10.494,7.804,11.662,12.124,9.565,7.949,-0.146,0.989,-0.012,0.488,1.190,-0.244,93.333,110249.000,1.000
10.363,17.631,12.873,10.401,14.282,13.314,11.358,10.514,-0.147,0.988,-0.008,0.488,1.221,-0.244,93.333,110250.000,1.000
10.460,17.602,13.902,11.512,14.526,12.080,11.678,11.104,-0.149,0.987,-0.007,0.549,1.190,-0.214,93.333,110251.000,1.000
9.546,16.732,13.915,11.748,14.082,10.499,11.041,11.413,-0.148,0.986,-0.009,0.458,0.946,-0.061,93.333,110252.000,1.000
7.901,15.083,13.036,11.293,13.351,9.395,9.926,11.742,-0.148,0.988,-0.009,0.519,0.885,-0.183,93.333,110253.000,1.000
6.327,13.174,11.371,10.080,11.478,7.966,8.865,11.017,-0.150,0.989,-0.008,0.519,0.885,-0.153,93.333,110254.000,1.000
5.485,11.767,9.662,8.784,9.217,6.520,8.555,9.691,-0.149,0.989,-0.007,0.488,0.885,-0.153,93.333,110255.000,1.000
5.321,11.118,8.760,8.418,8.668,6.635,9.272,9.704,-0.147,0.988,-0.011,0.519,0.854,-0.183,93.333,110256.000,1.000
5.391,10.879,8.606,9.030,9.953,8.240,10.513,11.375,-0.146,0.987,-0.012,0.580,0.763,-0.122,93.333,110257.000,1.000
5.502,10.718,8.525,9.787,10.937,9.200,11.568,12.875,-0.146,0.989,-0.010,0.549,0.824,0.061,93.333,110258.000,1.000
5.608,10.466,8.267,10.243,10.609,8.441,12.078,13.127,-0.145,0.989,-0.014,0.519,0.824,0.031,93.333,110259.000,1.000
5.351,9.678,7.952,10.540,10.100,7.169,11.865,12.929,-0.146,0.987,-0.012,0.610,0.824,0.092,93.333,110260.000,1.000
4.318,7.828,7.266,10.480,9.875,6.272,10.798,12.726,-0.145,0.989,-0.009,0.763,0.885,0.092,93.333,110261.000,1.000
2.766,5.248,5.823,9.620,8.727,4.950,9.217,11.704,-0.143,0.988,-0.010,0.732,0.732,0.000,93.333,110262.000,1.000
1.574,3.299,4.261,8.410,6.546,3.060,8.058,9.997,-0.144,0.989,-0.009,0.702,0.732,0.092,93.333,110263.000,1.000
1.448,3.250,3.990,8.122,5.470,2.481,8.072,9.550,-0.145,0.988,-0.010,0.702,0.732,0.061,93.333,110264.000,1.000
2.542,5.250,5.623,9.281,6.848,4.471,9.147,11.430,-0.145,0.990,-0.011,0.793,0.824,0.000,93.333,110265.000,1.000
4.707,8.533,8.495,11.179,9.326,7.551,10.798,14.270,-0.145,0.988,-0.011,0.824,0.763,0.031,93.333,110266.000,1.000
7.633,12.364,11.997,13.403,11.690,10.020,13.184,16.941,-0.144,0.987,-0.013,0.885,0.824,0.031,93.333,110267.000,1.000
10.614,16.189,16.104,16.502,15.039,12.506,16.744,20.489,-0.146,0.987,-0.015,1.007,0.824,-0.061,93.333,110268.000,1.000
12.461,18.840,19.784,20.081,19.662,15.536,20.442,25.145,-0.144,0.989,-0.011,1.007,0.732,-0.122,93.333,110269.000,1.000
12.126,18.668,20.531,21.840,22.382,16.809,21.753,27.914,-0.146,0.990,-0.011,1.099,0.824,-0.122,93.333,110270.000,1.000
9.508,15.154,16.965,20.040,20.298,14.070,19.368,26.124,-0.145,0.989,-0.014,1.038,0.824,-0.153,93.333,110271.000,1.000
5.466,9.674,10.787,15.753,15.104,9.003,14.739,21.373,-0.143,0.990,-0.015,1.068,0.854,-0.153,93.333,110272.000,1.000
1.202,4.324,5.056,11.391,10.707,5.257,10.297,17.216,-0.143,0.988,-0.013,1.038,0.916,-0.153,93.333,110273.000,1.000
-2.187,0.488,1.416,8.065,8.211,3.811,7.177,14.617,-0.142,0.988,-0.011,1.038,1.007,-0.153,93.333,110274.000,1.000
-4.094,-1.533,-0.308,5.393,6.049,2.930,5.071,12.199,-0.142,0.986,-0.010,1.038,1.007,-0.244,93.333,110275.000,1.000
-4.867,-2.288,-0.933,2.967,3.584,1.669,3.191,9.530,-0.141,0.989,-0.014,1.038,1.099,-0.214,93.333,110276.000,1.000
-5.546,-2.727,-1.274,0.823,1.579,0.608,0.809,7.383,-0.142,0.990,-0.016,1.099,1.099,-0.244,93.333,110277.000,1.000
-6.635,-3.373,-1.959,-0.991,-0.069,-0.309,-2.301,5.561,-0.142,0.989,-0.016,1.099,1.312,-0.305,93.333,110278.000,1.000
