,EEG 1,EEG 2,EEG 3,EEG 4,EEG 5,EEG 6,EEG 7,EEG 8,Accelerometer X,Accelerometer Y,Accelerometer Z,Gyroscope X,Gyroscope Y,Gyroscope Z,Battery Level,Counter,Validation Indicator
0,-28.728,-41.224,-31.771,-24.185,-25.093,-32.805,-15.973,-16.912,-0.095,0.795,-0.485,0.732,1.465,0.0,80.0,4097.0,1.0
1,-26.778,-38.068,-30.278,-21.686,-22.556,-31.363,-15.131,-16.989,-0.095,0.795,-0.487,0.702,1.556,-0.031,80.0,4098.0,1.0
2,-25.134,-34.407,-28.811,-20.047,-20.877,-30.018,-14.506,-16.962,-0.095,0.794,-0.486,0.732,1.556,0.0,80.0,4099.0,1.0
3,-23.59,-31.034,-27.514,-19.625,-20.721,-29.472,-14.781,-17.311,-0.095,0.795,-0.484,0.793,1.556,0.0,80.0,4100.0,1.0
4,-21.769,-28.344,-26.388,-20.031,-21.784,-29.721,-15.924,-18.058,-0.096,0.794,-0.485,0.671,1.556,-0.031,80.0,4101.0,1.0
5,-19.857,-26.483,-25.573,-20.747,-23.155,-30.176,-17.298,-18.886,-0.095,0.792,-0.486,0.702,1.526,-0.031,80.0,4102.0,1.0
6,-18.386,-25.459,-25.241,-21.006,-23.915,-30.14,-18.185,-19.482,-0.094,0.793,-0.483,0.671,1.434,-0.092,80.0,4103.0,1.0
7,-17.564,-25.096,-25.379,-20.093,-23.519,-29.265,-18.201,-19.589,-0.094,0.793,-0.487,0.702,1.465,-0.061,80.0,4104.0,1.0
8,-17.439,-25.183,-25.965,-18.326,-22.07,-27.784,-17.417,-18.985,-0.094,0.792,-0.488,0.702,1.404,-0.031,80.0,4105.0,1.0
9,-18.371,-25.728,-27.117,-16.838,-20.303,-26.372,-16.228,-17.567,-0.094,0.793,-0.489,0.763,1.404,-0.031,80.0,4106.0,1.0
10,-20.563,-26.796,-28.807,-16.294,-19.1,-25.595,-15.067,-15.536,-0.094,0.792,-0.489,0.793,1.434,-0.031,80.0,4107.0,1.0
11,-23.327,-28.161,-30.638,-16.625,-18.926,-25.462,-14.196,-13.519,-0.095,0.792,-0.486,0.854,1.404,-0.031,80.0,4108.0,1.0
12,-25.527,-29.431,-32.092,-17.528,-19.659,-25.597,-13.714,-12.2,-0.096,0.789,-0.488,0.916,1.465,-0.061,80.0,4109.0,1.0
13,-26.638,-30.412,-32.87,-18.495,-20.775,-25.69,-13.648,-11.798,-0.094,0.79,-0.487,0.885,1.404,-0.031,80.0,4110.0,1.0
14,-26.848,-31.12,-32.948,-18.726,-21.676,-25.666,-13.965,-12.037,-0.093,0.791,-0.489,1.007,1.343,-0.031,80.0,4111.0,1.0
15,-26.348,-31.49,-32.379,-17.487,-21.891,-25.608,-14.573,-12.428,-0.094,0.792,-0.485,1.038,1.343,-0.061,80.0,4112.0,1.0
16,-25.184,-31.388,-31.257,-15.048,-21.276,-25.632,-15.384,-12.679,-0.094,0.792,-0.483,1.038,1.282,-0.061,80.0,4113.0,1.0
17,-23.756,-30.908,-29.874,-13.164,-20.246,-25.787,-16.401,-13.112,-0.094,0.793,-0.482,1.007,1.221,-0.183,80.0,4114.0,1.0
18,-22.797,-30.336,-28.662,-13.646,-19.519,-26.011,-17.549,-14.283,-0.093,0.795,-0.484,1.007,1.221,-0.214,80.0,4115.0,1.0
19,-22.616,-29.776,-27.854,-16.573,-19.433,-26.191,-18.485,-16.151,-0.094,0.793,-0.487,1.038,1.282,-0.305,80.0,4116.0,1.0
20,-22.733,-29.006,-27.249,-20.281,-19.629,-26.243,-18.809,-17.907,-0.096,0.793,-0.485,1.099,1.221,-0.183,80.0,4117.0,1.0
21,-22.292,-27.629,-26.262,-22.626,-19.39,-26.062,-18.414,-18.521,-0.095,0.793,-0.484,1.007,1.282,-0.214,80.0,4118.0,1.0
22,-20.734,-25.431,-24.384,-22.544,-18.315,-25.491,-17.522,-17.633,-0.095,0.792,-0.487,1.038,1.099,-0.122,80.0,4119.0,1.0
23,-18.185,-22.742,-21.759,-20.835,-16.76,-24.478,-16.484,-16.03,-0.095,0.794,-0.486,1.068,1.068,-0.214,80.0,4120.0,1.0
24,-15.401,-20.343,-19.172,-19.207,-15.584,-23.251,-15.638,-14.901,-0.095,0.795,-0.487,1.068,1.099,-0.153,80.0,4121.0,1.0
25,-13.503,-19.021,-17.454,-18.758,-15.531,-22.317,-15.303,-14.846,-0.094,0.795,-0.486,1.068,1.068,-0.183,80.0,4122.0,1.0
26,-13.416,-19.239,-16.929,-19.373,-16.789,-22.199,-15.715,-15.76,-0.094,0.796,-0.487,1.038,1.038,-0.214,80.0,4123.0,1.0
27,-15.079,-20.831,-17.211,-20.016,-18.85,-23.089,-16.893,-17.196,-0.097,0.795,-0.487,1.007,0.916,-0.183,80.0,4124.0,1.0
28,-17.294,-22.861,-17.449,-19.522,-20.751,-24.734,-18.577,-18.602,-0.096,0.795,-0.487,0.946,0.916,-0.061,80.0,4125.0,1.0
29,-18.737,-24.113,-16.908,-17.602,-21.636,-26.613,-20.294,-19.519,-0.096,0.794,-0.483,0.885,0.946,-0.092,80.0,4126.0,1.0
30,-18.889,-23.867,-15.387,-15.076,-21.188,-28.045,-21.495,-19.679,-0.095,0.794,-0.486,0.824,0.946,0.0,80.0,4127.0,1.0
31,-17.762,-22.051,-13.03,-12.788,-19.522,-28.257,-21.715,-18.898,-0.094,0.793,-0.487,0.793,0.763,-0.031,80.0,4128.0,1.0
32,-15.408,-19.014,-10.052,-10.817,-16.926,-26.706,-20.705,-17.13,-0.094,0.793,-0.487,0.793,0.885,-0.031,80.0,4129.0,1.0
33,-12.291,-15.604,-6.889,-9.224,-13.932,-23.636,-18.646,-14.749,-0.095,0.793,-0.488,0.793,0.824,-0.061,80.0,4130.0,1.0
34,-9.599,-13.164,-4.289,-8.599,-11.379,-20.24,-16.278,-12.5,-0.096,0.794,-0.486,0.885,0.885,0.031,80.0,4131.0,1.0
35,-8.389,-12.863,-2.856,-9.239,-9.99,-18.043,-14.516,-10.972,-0.096,0.793,-0.485,0.824,0.824,0.031,80.0,4132.0,1.0
36,-8.549,-14.805,-2.542,-10.54,-9.764,-17.818,-13.672,-10.152,-0.095,0.792,-0.487,0.763,0.763,0.092,80.0,4133.0,1.0
37,-9.19,-17.896,-2.853,-11.631,-9.969,-18.995,-13.185,-9.572,-0.096,0.792,-0.486,0.763,0.732,0.061,80.0,4134.0,1.0
38,-9.905,-20.784,-3.546,-12.262,-9.889,-20.265,-12.336,-8.905,-0.096,0.793,-0.488,0.732,0.854,0.122,80.0,4135.0,1.0
39,-11.014,-22.837,-4.825,-12.844,-9.38,-20.688,-11.032,-8.32,-0.095,0.793,-0.485,0.61,0.793,0.122,80.0,4136.0,1.0
40,-12.678,-24.019,-6.748,-13.694,-8.572,-20.031,-9.641,-8.162,-0.095,0.792,-0.485,0.671,0.793,0.153,80.0,4137.0,1.0
41,-14.533,-24.307,-8.861,-14.394,-7.448,-18.462,-8.444,-8.384,-0.094,0.793,-0.482,0.671,0.732,0.153,80.0,4138.0,1.0
42,-16.26,-23.718,-10.6,-14.05,-6.034,-16.372,-7.566,-8.493,-0.094,0.792,-0.484,0.671,0.793,0.214,80.0,4139.0,1.0
43,-17.85,-22.493,-11.748,-12.449,-4.696,-14.23,-7.142,-8.043,-0.092,0.793,-0.484,0.702,0.793,0.214,80.0,4140.0,1.0
44,-19.23,-20.924,-12.444,-10.613,-3.919,-12.293,-7.152,-7.014,-0.089,0.793,-0.486,0.763,0.702,0.153,80.0,4141.0,1.0
45,-20.069,-19.128,-12.877,-9.621,-3.796,-10.466,-7.171,-5.619,-0.09,0.793,-0.486,0.793,0.885,0.153,80.0,4142.0,1.0
46,-20.203,-17.24,-13.131,-9.648,-4.025,-8.656,-6.653,-4.062,-0.092,0.793,-0.487,0.763,0.885,0.061,80.0,4143.0,1.0
47,-20.061,-15.745,-13.369,-10.681,-4.461,-7.211,-5.599,-2.755,-0.093,0.793,-0.486,0.763,0.946,0.061,80.0,4144.0,1.0
48,-20.267,-15.225,-13.849,-12.819,-5.289,-6.697,-4.628,-2.297,-0.091,0.793,-0.483,0.671,0.977,-0.031,80.0,4145.0,1.0
49,-20.931,-15.736,-14.588,-15.413,-6.527,-7.238,-4.386,-2.901,-0.091,0.794,-0.487,0.702,0.916,0.0,80.0,4146.0,1.0
50,-21.716,-16.654,-15.243,-16.982,-7.72,-8.29,-4.997,-4.055,-0.09,0.794,-0.49,0.732,1.007,-0.092,80.0,4147.0,1.0
51,-22.426,-17.146,-15.456,-16.478,-8.24,-9.03,-5.989,-4.912,-0.091,0.792,-0.486,0.671,1.038,-0.153,80.0,4148.0,1.0
52,-23.114,-16.786,-15.247,-14.419,-7.834,-8.955,-6.677,-4.997,-0.093,0.792,-0.485,0.732,1.068,-0.153,80.0,4149.0,1.0
53,-23.796,-15.848,-15.04,-12.51,-6.829,-8.174,-6.621,-4.428,-0.093,0.794,-0.487,0.854,1.16,-0.092,80.0,4150.0,1.0
54,-24.338,-14.96,-15.194,-11.98,-5.738,-7.1,-5.652,-3.408,-0.093,0.794,-0.488,0.732,1.221,-0.153,80.0,4151.0,1.0
55,-24.513,-14.5,-15.557,-12.451,-4.806,-6.038,-3.735,-1.886,-0.091,0.794,-0.486,0.641,1.251,-0.275,80.0,4152.0,1.0
56,-23.958,-14.36,-15.614,-12.684,-4.098,-5.248,-1.167,-0.015,-0.091,0.794,-0.488,0.671,1.282,-0.305,80.0,4153.0,1.0
57,-22.256,-14.258,-15.056,-12.15,-3.794,-5.128,1.277,1.403,-0.091,0.795,-0.484,0.671,1.221,-0.366,80.0,4154.0,1.0
58,-19.508,-14.24,-14.19,-11.537,-4.233,-6.034,2.758,1.478,-0.091,0.794,-0.485,0.702,1.19,-0.427,80.0,4155.0,1.0
59,-16.772,-14.731,-13.801,-11.736,-5.605,-7.899,3.012,0.189,-0.092,0.796,-0.485,0.702,1.312,-0.397,80.0,4156.0,1.0
60,-15.343,-15.954,-14.422,-12.528,-7.555,-10.121,2.453,-1.529,-0.093,0.794,-0.486,0.641,1.251,-0.397,80.0,4157.0,1.0
61,-15.592,-17.515,-15.871,-13.029,-9.324,-11.9,1.632,-2.778,-0.094,0.793,-0.486,0.519,1.19,-0.427,80.0,4158.0,1.0
62,-16.915,-18.714,-17.629,-13.242,-10.412,-12.689,0.747,-3.578,-0.093,0.794,-0.486,0.61,1.282,-0.458,80.0,4159.0,1.0
63,-18.548,-18.992,-19.304,-14.009,-10.866,-12.309,-0.247,-4.512,-0.095,0.795,-0.484,0.549,1.282,-0.488,80.0,4160.0,1.0
64,-20.011,-18.144,-20.657,-15.869,-10.966,-10.842,-1.264,-5.834,-0.095,0.795,-0.481,0.641,1.251,-0.458,80.0,4161.0,1.0
65,-20.928,-16.419,-21.437,-18.525,-10.857,-8.643,-2.007,-7.238,-0.094,0.794,-0.484,0.702,1.221,-0.427,80.0,4162.0,1.0
66,-20.813,-14.308,-21.274,-20.763,-10.416,-6.331,-2.219,-8.174,-0.094,0.795,-0.482,0.671,1.251,-0.397,80.0,4163.0,1.0
67,-19.305,-12.122,-19.794,-21.047,-9.395,-4.496,-1.867,-8.169,-0.097,0.797,-0.484,0.549,1.251,-0.458,80.0,4164.0,1.0
68,-16.534,-9.907,-16.898,-18.526,-7.67,-3.399,-1.076,-7.012,-0.096,0.796,-0.485,0.549,1.343,-0.488,80.0,4165.0,1.0
69,-13.037,-7.654,-12.893,-13.244,-5.372,-3.09,-0.113,-4.822,-0.096,0.796,-0.481,0.488,1.282,-0.305,80.0,4166.0,1.0
70,-9.588,-5.598,-8.559,-6.185,-2.985,-3.708,0.499,-2.196,-0.094,0.794,-0.481,0.427,1.282,-0.336,80.0,4167.0,1.0
71,-7.236,-4.306,-5.084,0.412,-1.313,-5.408,0.153,-0.288,-0.095,0.795,-0.483,0.458,1.251,-0.458,80.0,4168.0,1.0
72,-6.728,-4.083,-3.274,4.397,-0.842,-7.745,-1.167,0.103,-0.094,0.795,-0.484,0.488,1.16,-0.336,80.0,4169.0,1.0
73,-7.488,-4.313,-2.662,5.711,-1.072,-9.473,-2.519,-0.383,-0.094,0.792,-0.485,0.427,1.221,-0.214,80.0,4170.0,1.0
74,-7.994,-4.001,-2.107,5.321,-1.12,-9.571,-2.865,-0.56,-0.093,0.794,-0.484,0.427,1.221,-0.214,80.0,4171.0,1.0
75,-7.462,-2.996,-1.259,3.112,-0.892,-8.325,-2.162,-0.385,-0.094,0.795,-0.481,0.519,1.129,-0.214,80.0,4172.0,1.0
76,-6.495,-2.121,-0.731,-1.123,-1.051,-6.989,-1.269,-0.711,-0.094,0.794,-0.483,0.488,1.251,-0.153,80.0,4173.0,1.0
77,-5.977,-2.22,-1.03,-6.033,-2.14,-6.683,-1.06,-2.029,-0.094,0.795,-0.485,0.458,1.19,-0.153,80.0,4174.0,1.0
78,-5.964,-3.435,-1.903,-9.591,-4.119,-7.726,-1.797,-4.099,-0.095,0.794,-0.483,0.488,1.16,-0.061,80.0,4175.0,1.0
79,-5.814,-5.318,-2.616,-10.689,-6.443,-9.604,-3.045,-6.228,-0.094,0.794,-0.485,0.488,1.19,-0.031,80.0,4176.0,1.0
80,-4.957,-7.322,-2.554,-9.379,-8.371,-11.437,-4.006,-7.586,-0.094,0.793,-0.485,0.519,1.221,-0.122,80.0,4177.0,1.0
81,-3.335,-9.143,-1.643,-6.464,-9.398,-12.65,-4.115,-7.685,-0.094,0.792,-0.483,0.702,1.343,0.0,80.0,4178.0,1.0
82,-1.396,-10.747,-0.474,-3.272,-9.614,-13.329,-3.478,-6.832,-0.092,0.794,-0.482,0.732,1.251,-0.031,80.0,4179.0,1.0
83,0.048,-12.247,-0.011,-1.198,-9.581,-13.996,-2.746,-5.926,-0.093,0.795,-0.484,0.549,1.312,-0.061,80.0,4180.0,1.0
84,0.202,-13.703,-0.873,-0.882,-9.748,-15.014,-2.504,-5.692,-0.092,0.794,-0.486,0.549,1.343,-0.183,80.0,4181.0,1.0
85,-0.984,-14.821,-2.683,-1.674,-9.955,-16.102,-2.76,-6.111,-0.092,0.794,-0.485,0.58,1.251,-0.153,80.0,4182.0,1.0
86,-2.526,-14.965,-4.254,-2.256,-9.671,-16.528,-3.089,-6.692,-0.093,0.794,-0.483,0.641,1.129,-0.153,80.0,4183.0,1.0
87,-3.353,-13.823,-4.704,-2.034,-8.868,-15.978,-3.414,-7.319,-0.092,0.796,-0.483,0.61,1.373,-0.122,80.0,4184.0,1.0
88,-3.36,-11.912,-4.169,-1.468,-8.327,-15.015,-4.282,-8.381,-0.092,0.795,-0.486,0.641,1.312,-0.092,80.0,4185.0,1.0
89,-3.05,-10.052,-3.223,-1.145,-8.784,-14.432,-6.047,-9.856,-0.093,0.797,-0.485,0.61,1.221,-0.092,80.0,4186.0,1.0
90,-2.438,-8.488,-2.043,-1.258,-10.094,-14.399,-8.204,-11.047,-0.093,0.795,-0.48,0.61,1.343,-0.122,80.0,4187.0,1.0
91,-0.983,-6.881,-0.431,-1.568,-11.441,-14.435,-9.911,-11.514,-0.094,0.796,-0.482,0.732,1.251,-0.092,80.0,4188.0,1.0
92,1.384,-4.994,1.61,-1.441,-12.046,-13.932,-10.677,-11.451,-0.095,0.797,-0.484,0.763,1.16,-0.092,80.0,4189.0,1.0
93,3.608,-3.135,3.48,-0.645,-11.582,-12.577,-10.279,-11.016,-0.094,0.794,-0.483,0.702,1.099,-0.122,80.0,4190.0,1.0
94,4.299,-1.896,4.281,0.037,-10.124,-10.488,-8.513,-9.9,-0.094,0.796,-0.482,0.671,1.129,-0.183,80.0,4191.0,1.0
95,2.907,-1.64,3.498,-0.256,-8.001,-8.219,-5.524,-7.724,-0.093,0.796,-0.484,0.671,1.16,-0.153,80.0,4192.0,1.0
96,-0.268,-2.416,1.216,-1.609,-5.867,-6.645,-2.175,-4.73,-0.094,0.797,-0.484,0.732,1.099,-0.153,80.0,4193.0,1.0
97,-4.595,-4.076,-2.122,-3.898,-4.594,-6.416,0.39,-1.974,-0.094,0.796,-0.484,0.671,1.129,-0.305,80.0,4194.0,1.0
98,-9.027,-6.1,-5.726,-7.027,-4.621,-7.292,1.659,-0.505,-0.094,0.796,-0.482,0.61,1.129,-0.275,80.0,4195.0,1.0
99,-12.077,-7.613,-8.497,-10.204,-5.499,-8.217,2.084,-0.393,-0.094,0.794,-0.482,0.671,1.099,-0.183,80.0,4196.0,1.0
100,-12.693,-7.944,-9.591,-12.006,-6.366,-8.168,2.452,-0.812,-0.094,0.795,-0.484,0.702,1.129,-0.214,80.0,4197.0,1.0
101,-11.147,-7.084,-8.984,-11.484,-6.723,-6.873,3.063,-0.919,-0.094,0.796,-0.483,0.671,1.099,-0.122,80.0,4198.0,1.0
102,-8.706,-5.473,-7.302,-8.822,-6.516,-4.722,3.673,-0.415,-0.094,0.794,-0.479,0.763,1.16,-0.183,80.0,4199.0,1.0
103,-6.467,-3.503,-5.164,-5.163,-5.653,-2.219,4.065,0.52,-0.094,0.793,-0.479,0.732,1.19,-0.183,80.0,4200.0,1.0
104,-4.77,-1.386,-2.893,-2.039,-3.895,0.311,4.391,1.518,-0.096,0.795,-0.478,0.732,1.19,-0.153,80.0,4201.0,1.0
105,-3.496,0.762,-0.675,-0.374,-1.124,2.712,5.007,2.435,-0.094,0.798,-0.479,0.732,1.068,-0.214,80.0,4202.0,1.0
106,-2.313,2.962,1.422,0.287,2.52,4.969,6.164,3.62,-0.095,0.798,-0.483,0.732,1.007,-0.275,80.0,4203.0,1.0
107,-0.723,5.348,3.463,1.175,6.627,7.127,7.801,5.425,-0.095,0.797,-0.483,0.61,1.007,-0.214,80.0,4204.0,1.0
108,1.355,7.863,5.293,2.742,10.454,9.193,9.593,7.497,-0.096,0.799,-0.481,0.671,1.038,-0.061,80.0,4205.0,1.0
109,3.03,10.011,6.28,4.022,13.177,11.154,11.344,9.127,-0.096,0.798,-0.48,0.732,0.977,-0.061,80.0,4206.0,1.0
110,3.231,11.236,5.83,3.898,14.515,13.098,13.284,10.173,-0.096,0.797,-0.48,0.61,0.977,0.0,80.0,4207.0,1.0
111,2.097,11.563,4.144,2.621,14.983,15.104,15.794,11.156,-0.096,0.797,-0.482,0.58,1.007,0.031,80.0,4208.0,1.0
112,0.811,11.498,2.116,1.618,15.355,16.935,18.829,12.619,-0.095,0.798,-0.482,0.58,0.977,0.031,80.0,4209.0,1.0
113,0.167,11.385,0.608,2.283,15.985,18.043,21.787,14.726,-0.095,0.799,-0.483,0.458,0.977,0.031,80.0,4210.0,1.0
114,-0.014,11.215,-0.025,5.175,16.704,18.06,23.925,17.307,-0.097,0.799,-0.483,0.519,0.946,0.0,80.0,4211.0,1.0
115,-0.067,10.966,0.106,9.708,17.178,17.132,24.803,19.972,-0.094,0.799,-0.482,0.488,0.977,-0.031,80.0,4212.0,1.0
116,0.214,10.697,0.721,14.34,17.186,15.784,24.463,22.165,-0.094,0.798,-0.482,0.458,0.916,0.122,80.0,4213.0,1.0
117,1.167,10.326,1.515,17.169,16.585,14.554,23.237,23.189,-0.093,0.796,-0.483,0.58,0.916,0.214,80.0,4214.0,1.0
118,2.602,9.576,2.038,16.49,15.153,13.631,21.291,22.283,-0.094,0.796,-0.487,0.519,1.007,0.183,80.0,4215.0,1.0
119,4.158,8.385,1.895,11.732,12.851,12.837,18.552,19.088,-0.092,0.795,-0.483,0.58,1.068,0.183,80.0,4216.0,1.0
120,5.972,7.223,1.281,4.643,10.261,12.003,15.263,14.308,-0.093,0.796,-0.484,0.671,1.068,0.214,80.0,4217.0,1.0
121,8.4,6.731,0.984,-1.104,8.42,11.219,12.273,9.651,-0.093,0.797,-0.483,0.61,1.099,0.244,80.0,4218.0,1.0
122,11.493,7.26,1.815,-2.364,8.122,10.762,10.544,6.86,-0.093,0.798,-0.483,0.671,1.129,0.275,80.0,4219.0,1.0
123,15.16,8.833,4.13,1.243,9.471,10.892,10.477,6.717,-0.092,0.796,-0.483,0.671,1.099,0.244,80.0,4220.0,1.0
124,19.296,11.103,7.62,7.419,11.909,11.602,11.633,8.706,-0.093,0.794,-0.479,0.732,1.129,0.336,80.0,4221.0,1.0
125,23.35,13.235,11.373,13.08,14.489,12.517,12.989,11.335,-0.093,0.795,-0.478,0.824,1.129,0.275,80.0,4222.0,1.0
126,26.403,14.397,14.488,16.34,16.439,13.305,13.701,13.089,-0.093,0.796,-0.477,0.885,1.16,0.214,80.0,4223.0,1.0
127,28.154,14.686,16.916,17.505,17.801,14.22,13.9,13.606,-0.093,0.796,-0.479,0.885,1.19,0.122,80.0,4224.0,1.0
128,29.359,15.144,19.374,18.366,19.305,15.889,14.471,13.751,-0.092,0.794,-0.48,0.977,1.19,0.153,80.0,4225.0,1.0
129,30.902,16.635,22.334,20.423,21.399,18.38,15.886,14.451,-0.093,0.792,-0.479,0.977,1.16,0.092,80.0,4226.0,1.0
130,32.902,19.044,25.457,23.735,23.67,20.784,17.545,15.811,-0.089,0.792,-0.478,0.977,1.221,-0.061,80.0,4227.0,1.0
131,35.05,21.727,28.105,27.115,25.339,21.932,18.399,17.278,-0.09,0.791,-0.479,1.007,1.099,-0.092,80.0,4228.0,1.0
132,37.288,24.241,30.016,29.062,26.032,21.39,17.958,18.289,-0.089,0.791,-0.479,1.16,1.251,-0.183,80.0,4229.0,1.0
133,39.614,26.377,31.28,28.831,25.916,19.695,16.552,18.658,-0.092,0.79,-0.481,1.282,1.312,-0.214,80.0,4230.0,1.0
134,41.611,27.926,31.99,27.165,25.344,17.872,14.861,18.602,-0.091,0.791,-0.477,1.343,1.251,-0.214,80.0,4231.0,1.0
135,42.702,28.709,32.158,25.701,24.573,16.748,13.376,18.431,-0.09,0.792,-0.481,1.495,1.312,-0.275,80.0,4232.0,1.0
136,42.686,28.751,31.777,25.243,23.648,16.585,12.195,18.07,-0.091,0.792,-0.481,1.556,1.312,-0.366,80.0,4233.0,1.0
137,41.66,28.243,30.858,25.145,22.432,17.17,11.194,17.09,-0.092,0.792,-0.481,1.617,1.251,-0.458,80.0,4234.0,1.0
138,39.515,27.244,29.384,24.276,20.729,18.005,10.215,15.24,-0.093,0.792,-0.482,1.617,1.373,-0.549,80.0,4235.0,1.0
139,36.088,25.696,27.427,22.112,18.499,18.535,9.19,12.757,-0.093,0.793,-0.483,1.77,1.343,-0.58,80.0,4236.0,1.0
140,31.985,23.849,25.385,19.202,16.101,18.512,8.222,10.264,-0.092,0.795,-0.482,1.77,1.312,-0.549,80.0,4237.0,1.0
141,28.498,22.21,23.764,16.58,14.096,18.041,7.45,8.41,-0.093,0.798,-0.482,1.831,1.465,-0.671,80.0,4238.0,1.0
142,26.417,20.911,22.662,14.942,12.78,17.238,6.837,7.617,-0.096,0.8,-0.485,1.862,1.404,-0.671,80.0,4239.0,1.0
143,25.332,19.509,21.677,14.459,12.052,16.043,6.233,8.028,-0.097,0.802,-0.486,1.77,1.343,-0.671,80.0,4240.0,1.0
144,24.148,17.475,20.177,14.601,11.496,14.329,5.483,9.227,-0.095,0.802,-0.483,1.678,1.251,-0.671,80.0,4241.0,1.0
145,21.991,14.77,17.72,14.372,10.614,12.088,4.482,10.307,-0.097,0.802,-0.485,1.526,1.221,-0.732,80.0,4242.0,1.0
146,18.51,11.841,14.333,13.291,9.182,9.504,3.261,10.719,-0.096,0.801,-0.484,1.434,1.129,-0.702,80.0,4243.0,1.0
147,13.571,9.043,10.361,11.525,7.262,6.773,1.853,10.439,-0.095,0.8,-0.486,1.404,1.068,-0.641,80.0,4244.0,1.0
148,7.398,6.435,6.311,9.289,5.027,4.022,0.119,9.297,-0.094,0.801,-0.485,1.465,1.099,-0.549,80.0,4245.0,1.0
149,1.016,4.25,2.928,7.019,2.848,1.542,-2.046,7.096,-0.096,0.8,-0.482,1.434,1.068,-0.488,80.0,4246.0,1.0
150,-4.302,2.911,0.882,5.662,1.163,-0.224,-4.529,4.243,-0.097,0.8,-0.485,1.373,0.977,-0.458,80.0,4247.0,1.0
151,-8.051,2.469,0.21,5.933,0.062,-1.021,-7.1,1.563,-0.096,0.802,-0.485,1.404,0.977,-0.336,80.0,4248.0,1.0
152,-10.419,2.647,0.439,7.334,-0.666,-0.826,-9.434,-0.365,-0.096,0.8,-0.483,1.312,0.977,-0.275,80.0,4249.0,1.0
153,-11.591,3.416,1.169,8.395,-1.08,0.384,-11.074,-1.513,-0.094,0.801,-0.483,1.19,0.946,-0.214,80.0,4250.0,1.0
154,-11.819,4.974,2.243,8.156,-0.977,2.627,-11.578,-2.271,-0.096,0.8,-0.485,1.16,0.854,-0.153,80.0,4251.0,1.0
155,-11.814,7.179,3.479,6.973,-0.254,5.524,-10.871,-3.12,-0.096,0.799,-0.482,1.129,0.793,-0.092,80.0,4252.0,1.0
156,-12.404,9.317,4.505,5.5,0.766,8.027,-9.529,-4.41,-0.096,0.799,-0.482,1.038,0.824,-0.061,80.0,4253.0,1.0
157,-13.802,10.473,4.951,3.752,1.505,8.889,-8.474,-6.257,-0.096,0.798,-0.483,1.038,0.793,0.0,80.0,4254.0,1.0
158,-15.507,10.176,4.749,1.76,1.656,7.572,-8.271,-8.396,-0.099,0.799,-0.482,1.038,0.793,0.092,80.0,4255.0,1.0
159,-16.945,8.705,4.241,0.293,1.431,4.621,-8.811,-10.194,-0.095,0.798,-0.485,0.946,0.763,0.122,80.0,4256.0,1.0
160,-17.78,6.966,4.096,0.425,1.349,1.244,-9.609,-11.039,-0.096,0.798,-0.48,0.854,0.702,0.122,80.0,4257.0,1.0
161,-17.685,6.004,4.936,2.485,1.777,-1.46,-10.268,-10.863,-0.094,0.796,-0.481,0.702,0.61,0.153,80.0,4258.0,1.0
162,-16.616,6.232,6.599,5.313,2.516,-2.981,-10.654,-10.343,-0.095,0.798,-0.481,0.732,0.549,0.122,80.0,4259.0,1.0
163,-15.271,7.076,7.966,6.829,2.866,-3.352,-10.719,-10.317,-0.095,0.797,-0.482,0.641,0.549,0.0,80.0,4260.0,1.0
164,-14.507,7.55,7.931,5.827,2.228,-2.818,-10.348,-11.052,-0.093,0.796,-0.481,0.61,0.58,0.031,80.0,4261.0,1.0
165,-14.222,7.149,6.456,3.067,0.647,-1.626,-9.449,-12.336,-0.094,0.797,-0.48,0.549,0.641,0.061,80.0,4262.0,1.0
166,-13.49,6.045,4.442,0.301,-1.236,-0.109,-8.166,-13.966,-0.093,0.796,-0.479,0.61,0.671,0.0,80.0,4263.0,1.0
167,-11.84,4.529,2.729,-1.844,-2.812,1.1,-7.076,-15.887,-0.093,0.797,-0.482,0.549,0.549,-0.031,80.0,4264.0,1.0
168,-9.661,2.793,1.682,-4.355,-3.798,1.328,-6.885,-17.882,-0.093,0.799,-0.483,0.61,0.58,-0.244,80.0,4265.0,1.0
169,-7.232,1.324,1.633,-7.627,-3.852,0.546,-7.633,-19.224,-0.092,0.798,-0.481,0.458,0.58,-0.214,80.0,4266.0,1.0
170,-4.207,0.78,2.942,-9.881,-2.549,-0.549,-8.494,-19.079,-0.091,0.797,-0.482,0.458,0.61,-0.122,80.0,4267.0,1.0
171,-0.401,1.231,5.342,-8.792,-0.064,-1.193,-8.576,-17.437,-0.092,0.796,-0.484,0.488,0.61,-0.153,80.0,4268.0,1.0
172,3.412,1.874,7.615,-4.189,2.475,-1.186,-7.778,-15.289,-0.093,0.795,-0.485,0.61,0.702,-0.275,80.0,4269.0,1.0
173,6.052,1.708,8.28,1.489,3.6,-0.921,-6.827,-13.927,-0.094,0.796,-0.479,0.58,0.763,-0.275,80.0,4270.0,1.0
174,7.258,0.416,6.829,5.463,2.638,-0.801,-6.529,-14.171,-0.094,0.798,-0.479,0.488,0.702,-0.305,80.0,4271.0,1.0
175,8.01,-1.4,4.205,6.772,0.248,-0.727,-7.082,-16.01,-0.094,0.796,-0.48,0.58,0.763,-0.214,80.0,4272.0,1.0
176,9.657,-2.541,2.102,6.242,-2.119,-0.115,-7.992,-18.774,-0.094,0.795,-0.482,0.61,0.763,-0.214,80.0,4273.0,1.0
177,13.209,-1.638,2.102,5.457,-2.992,1.832,-8.312,-21.508,-0.094,0.795,-0.482,0.61,0.854,-0.244,80.0,4274.0,1.0
178,19.147,2.359,5.125,5.968,-1.338,5.791,-7.025,-23.234,-0.095,0.796,-0.481,0.58,0.946,-0.214,80.0,4275.0,1.0
179,26.946,9.457,10.839,8.369,2.951,11.812,-3.693,-23.266,-0.094,0.794,-0.482,0.702,0.916,-0.214,80.0,4276.0,1.0
180,34.767,18.193,17.527,11.808,8.726,18.98,1.103,-21.512,-0.095,0.795,-0.478,0.854,0.946,-0.214,80.0,4277.0,1.0
181,40.472,26.296,23.163,15.149,14.213,25.729,6.162,-18.288,-0.094,0.795,-0.481,0.793,0.946,-0.122,80.0,4278.0,1.0
182,43.072,31.941,26.666,18.339,18.166,30.561,10.508,-13.967,-0.095,0.795,-0.478,0.793,1.038,-0.122,80.0,4279.0,1.0
183,42.733,34.294,27.81,21.532,20.253,32.517,13.779,-9.049,-0.094,0.793,-0.482,0.824,0.885,-0.031,80.0,4280.0,1.0
184,39.787,33.227,26.503,23.403,20.673,31.428,16.071,-4.232,-0.095,0.796,-0.479,0.824,1.007,-0.031,80.0,4281.0,1.0
185,34.58,29.163,22.901,22.107,19.901,28.012,17.612,0.034,-0.095,0.796,-0.481,0.854,1.007,0.122,80.0,4282.0,1.0
186,28.125,23.229,18.006,18.012,18.636,23.549,18.515,3.853,-0.096,0.794,-0.481,1.038,0.946,0.031,80.0,4283.0,1.0
187,22.026,17.009,13.457,14.061,17.507,19.219,18.719,7.544,-0.094,0.794,-0.484,1.007,0.977,0.122,80.0,4284.0,1.0
188,17.429,11.879,10.549,12.894,16.641,15.644,18.105,11.089,-0.096,0.794,-0.483,1.16,0.977,0.214,80.0,4285.0,1.0
189,14.318,8.476,9.51,14.174,15.543,12.803,16.519,13.807,-0.095,0.794,-0.484,1.19,1.007,0.183,80.0,4286.0,1.0
190,11.902,6.598,9.59,15.168,13.496,10.219,13.79,14.399,-0.095,0.792,-0.482,1.343,1.099,0.153,80.0,4287.0,1.0
191,9.388,5.521,9.712,13.608,10.26,7.446,10.05,11.92,-0.094,0.792,-0.481,1.343,0.977,0.183,80.0,4288.0,1.0
192,6.232,4.492,9.066,9.518,6.414,4.558,6.018,7.098,-0.095,0.794,-0.481,1.373,1.007,0.214,80.0,4289.0,1.0
193,2.233,3.23,7.5,4.701,3.044,2.178,2.741,2.202,-0.095,0.795,-0.481,1.495,1.099,0.183,80.0,4290.0,1.0
194,-2.136,2.274,5.673,1.227,1.243,1.108,1.026,-0.632,-0.094,0.793,-0.482,1.526,1.129,0.244,80.0,4291.0,1.0
195,-5.841,2.622,4.679,0.422,1.702,1.753,0.995,-0.672,-0.093,0.794,-0.481,1.678,1.129,0.153,80.0,4292.0,1.0
196,-8.173,4.663,5.182,2.524,4.284,3.659,2.068,1.537,-0.093,0.796,-0.482,1.709,1.16,0.183,80.0,4293.0,1.0
197,-9.321,7.631,6.939,6.606,7.916,5.699,3.398,4.882,-0.091,0.797,-0.484,1.709,1.129,0.214,80.0,4294.0,1.0
198,-9.882,10.343,9.13,10.852,11.143,6.868,4.361,8.112,-0.094,0.797,-0.485,1.831,1.221,0.214,80.0,4295.0,1.0
199,-10.208,12.103,10.911,13.281,12.905,6.809,4.658,10.033,-0.093,0.798,-0.483,1.831,1.251,0.214,80.0,4296.0,1.0
200,-10.601,12.64,11.62,12.665,12.855,5.641,4.175,9.903,-0.094,0.797,-0.481,1.77,1.16,0.122,80.0,4297.0,1.0
201,-11.607,11.735,10.959,9.274,11.241,3.692,2.93,7.917,-0.093,0.797,-0.483,1.77,1.282,0.092,80.0,4298.0,1.0
202,-13.57,9.432,9.189,4.658,8.637,1.412,1.053,4.984,-0.09,0.794,-0.484,1.678,1.312,0.153,80.0,4299.0,1.0
203,-16.161,6.321,6.923,0.228,5.572,-0.783,-1.4,1.875,-0.089,0.795,-0.486,1.678,1.404,0.153,80.0,4300.0,1.0
204,-18.665,3.285,4.697,-3.626,2.378,-2.59,-4.4,-0.979,-0.092,0.792,-0.485,1.74,1.434,0.153,80.0,4301.0,1.0
205,-20.544,1.018,2.863,-6.877,-0.649,-3.68,-7.589,-2.963,-0.091,0.793,-0.481,1.77,1.526,0.122,80.0,4302.0,1.0
206,-21.503,-0.144,1.72,-9.171,-3.126,-3.702,-10.26,-3.423,-0.092,0.792,-0.487,1.801,1.526,0.061,80.0,4303.0,1.0
207,-21.187,0.022,1.587,-10.022,-4.618,-2.488,-11.775,-2.418,-0.093,0.791,-0.483,1.831,1.465,0.061,80.0,4304.0,1.0
208,-19.355,1.692,2.627,-9.142,-4.766,-0.193,-11.91,-0.698,-0.091,0.789,-0.483,1.953,1.465,0.092,80.0,4305.0,1.0
209,-16.491,4.687,4.575,-6.601,-3.517,2.726,-11.016,1.041,-0.089,0.788,-0.485,2.014,1.526,0.031,80.0,4306.0,1.0
210,-13.635,8.435,6.896,-2.813,-1.173,5.745,-9.805,2.477,-0.091,0.787,-0.484,2.136,1.587,-0.031,80.0,4307.0,1.0
211,-11.51,12.272,9.202,1.48,1.751,8.498,-8.91,3.297,-0.094,0.787,-0.487,2.228,1.648,-0.061,80.0,4308.0,1.0
212,-10.361,15.534,11.214,5.118,4.583,10.611,-8.707,2.969,-0.094,0.79,-0.485,2.258,1.617,-0.061,80.0,4309.0,1.0
213,-10.452,17.575,12.514,6.896,6.667,11.596,-9.282,1.244,-0.094,0.79,-0.484,2.411,1.648,-0.183,80.0,4310.0,1.0
214,-11.958,18.089,12.715,6.456,7.732,11.162,-10.318,-1.32,-0.092,0.791,-0.482,2.441,1.495,-0.092,80.0,4311.0,1.0
215,-14.457,17.314,11.729,4.598,8.002,9.526,-11.249,-3.658,-0.093,0.791,-0.486,2.411,1.465,-0.122,80.0,4312.0,1.0
216,-17.239,15.62,9.637,2.438,7.82,7.266,-11.723,-4.94,-0.095,0.791,-0.486,2.502,1.404,-0.244,80.0,4313.0,1.0
217,-20.037,13.027,6.496,0.512,7.301,5.015,-11.812,-4.975,-0.095,0.794,-0.489,2.502,1.373,-0.244,80.0,4314.0,1.0
218,-22.822,9.555,2.612,-1.055,6.5,3.406,-11.655,-4.098,-0.094,0.796,-0.487,2.38,1.434,-0.214,80.0,4315.0,1.0
219,-24.896,5.973,-1.035,-1.665,5.836,3.029,-11.048,-2.711,-0.094,0.798,-0.487,2.319,1.404,-0.183,80.0,4316.0,1.0
220,-24.925,3.618,-3.098,-0.323,5.944,4.016,-9.629,-0.973,-0.092,0.799,-0.486,2.228,1.221,-0.214,80.0,4317.0,1.0
221,-22.255,3.225,-2.925,2.946,6.911,5.637,-7.526,0.938,-0.093,0.8,-0.489,2.075,1.312,-0.153,80.0,4318.0,1.0
222,-17.734,4.234,-1.12,6.562,8.005,6.673,-5.471,2.53,-0.093,0.798,-0.488,2.014,1.312,-0.092,80.0,4319.0,1.0
223,-12.837,5.502,1.126,8.85,8.408,6.374,-4.12,3.404,-0.093,0.799,-0.488,1.892,1.404,0.031,80.0,4320.0,1.0
224,-8.308,6.428,3.107,9.813,8.003,4.96,-3.483,3.885,-0.093,0.798,-0.49,1.801,1.221,0.0,80.0,4321.0,1.0
225,-4.054,7.124,4.91,11.058,7.302,3.236,-3.09,4.864,-0.094,0.797,-0.49,1.74,1.312,0.0,80.0,4322.0,1.0
226,-0.261,7.7,6.648,13.406,6.652,1.944,-2.616,6.614,-0.094,0.798,-0.488,1.709,1.343,0.0,80.0,4323.0,1.0
227,2.139,7.916,7.784,15.222,5.799,1.497,-2.167,8.106,-0.095,0.796,-0.49,1.648,1.312,0.122,80.0,4324.0,1.0
228,2.475,7.674,7.66,14.326,4.462,2.097,-1.931,8.163,-0.094,0.794,-0.49,1.495,1.312,0.061,80.0,4325.0,1.0
229,1.204,7.422,6.42,10.581,2.99,3.791,-1.77,6.886,-0.096,0.795,-0.486,1.404,1.19,0.244,80.0,4326.0,1.0
230,-0.367,7.872,5.107,5.915,2.23,6.407,-1.241,5.646,-0.095,0.795,-0.486,1.282,1.19,0.122,80.0,4327.0,1.0
231,-0.873,9.407,4.927,2.791,2.921,9.518,0.138,5.964,-0.095,0.795,-0.492,1.282,1.16,0.092,80.0,4328.0,1.0
232,0.374,11.618,6.331,2.577,5.136,12.522,2.552,8.366,-0.094,0.794,-0.491,1.221,1.129,0.092,80.0,4329.0,1.0
233,2.98,13.444,8.75,4.905,8.215,14.901,5.632,12.177,-0.094,0.792,-0.491,1.251,1.099,0.092,80.0,4330.0,1.0
234,5.689,13.862,11.129,8.328,11.136,16.43,8.468,16.094,-0.091,0.792,-0.489,1.099,1.068,0.244,80.0,4331.0,1.0
235,7.284,12.529,12.584,11.106,12.948,17.091,10.027,18.765,-0.093,0.793,-0.487,1.099,1.038,0.214,80.0,4332.0,1.0
236,7.629,10.099,12.885,11.916,13.184,16.948,9.822,19.367,-0.094,0.792,-0.487,1.099,1.007,0.092,80.0,4333.0,1.0
237,7.673,7.834,12.519,10.713,12.036,15.973,8.138,18.057,-0.093,0.792,-0.49,0.977,1.007,0.061,80.0,4334.0,1.0
238,8.235,6.518,12.124,8.565,9.998,13.806,5.558,15.721,-0.094,0.792,-0.488,1.038,0.946,0.0,80.0,4335.0,1.0
239,9.237,5.872,11.915,6.661,7.53,9.992,2.575,13.354,-0.094,0.792,-0.486,1.129,0.854,-0.031,80.0,4336.0,1.0
240,10.306,5.226,11.837,6.076,5.229,4.764,-0.275,11.778,-0.093,0.791,-0.487,1.099,0.854,-0.061,80.0,4337.0,1.0
241,11.457,4.412,11.971,7.959,3.93,-0.564,-2.239,11.598,-0.092,0.793,-0.486,1.099,0.763,-0.092,80.0,4338.0,1.0
242,12.508,3.6,12.25,12.277,4.081,-4.405,-2.725,12.826,-0.093,0.792,-0.487,1.068,0.793,-0.061,80.0,4339.0,1.0
243,12.436,2.625,11.927,16.229,5.091,-6.086,-1.891,14.488,-0.094,0.793,-0.491,1.068,0.793,-0.153,80.0,4340.0,1.0
244,10.42,1.295,10.294,16.187,5.991,-5.89,-0.392,15.412,-0.092,0.791,-0.49,1.038,0.732,-0.183,80.0,4341.0,1.0
245,7.252,0.178,7.905,11.79,6.639,-4.214,1.439,15.549,-0.093,0.791,-0.488,1.099,0.824,-0.153,80.0,4342.0,1.0
246,4.682,0.147,6.062,6.16,7.419,-1.499,3.497,15.678,-0.092,0.792,-0.488,0.916,0.763,-0.305,80.0,4343.0,1.0
247,3.68,1.188,5.201,2.084,8.018,1.18,5.173,15.929,-0.092,0.792,-0.486,0.916,0.671,-0.275,80.0,4344.0,1.0
248,4.034,2.292,4.564,-0.207,7.451,2.393,5.502,15.482,-0.093,0.791,-0.488,0.885,0.641,-0.336,80.0,4345.0,1.0
249,5.074,2.329,3.258,-1.641,5.261,1.413,4.055,13.684,-0.095,0.793,-0.487,0.854,0.58,-0.275,80.0,4346.0,1.0
250,6.074,0.785,1.042,-2.385,2.087,-1.231,1.314,10.937,-0.094,0.791,-0.489,0.885,0.549,-0.244,80.0,4347.0,1.0
251,6.386,-2.034,-1.711,-1.921,-0.902,-4.199,-1.774,8.338,-0.095,0.792,-0.49,0.824,0.61,-0.244,80.0,4348.0,1.0
252,5.899,-5.187,-4.366,-0.241,-2.852,-6.258,-4.396,6.637,-0.094,0.793,-0.489,0.854,0.549,-0.305,80.0,4349.0,1.0
253,5.306,-7.503,-6.269,1.823,-3.571,-6.888,-6.127,5.82,-0.094,0.792,-0.488,0.793,0.488,-0.275,80.0,4350.0,1.0
254,5.461,-8.082,-6.977,3.325,-3.399,-6.283,-6.934,5.542,-0.095,0.794,-0.489,0.854,0.488,-0.244,80.0,4351.0,1.0
255,6.462,-6.766,-6.565,3.747,-2.878,-4.995,-7.093,5.523,-0.092,0.793,-0.488,0.793,0.336,-0.244,80.0,4352.0,1.0
256,7.735,-4.133,-5.592,3.034,-2.386,-3.582,-6.926,5.579,-0.094,0.793,-0.485,0.824,0.305,-0.092,80.0,4353.0,1.0
257,8.838,-1.088,-4.627,1.642,-1.942,-2.416,-6.58,5.605,-0.093,0.794,-0.485,0.702,0.305,-0.122,80.0,4354.0,1.0
258,9.646,1.45,-3.979,0.492,-1.381,-1.714,-6.124,5.642,-0.096,0.794,-0.488,0.58,0.305,-0.122,80.0,4355.0,1.0
259,9.85,2.766,-3.86,0.388,-0.618,-1.601,-5.66,5.951,-0.095,0.794,-0.488,0.549,0.275,-0.092,80.0,4356.0,1.0
260,8.933,2.693,-4.496,1.079,0.228,-2.058,-5.212,6.903,-0.094,0.793,-0.486,0.488,0.122,-0.092,80.0,4357.0,1.0
261,6.87,1.819,-5.874,1.308,0.867,-2.843,-4.731,8.517,-0.094,0.793,-0.489,0.488,0.153,-0.092,80.0,4358.0,1.0
262,4.389,1.118,-7.521,0.266,0.944,-3.617,-4.349,10.034,-0.095,0.794,-0.49,0.519,0.153,-0.092,80.0,4359.0,1.0
263,2.248,1.234,-8.821,-1.551,0.232,-4.09,-4.379,10.276,-0.093,0.794,-0.488,0.397,0.183,-0.092,80.0,4360.0,1.0
264,0.768,2.268,-9.363,-2.923,-1.014,-3.986,-4.862,8.751,-0.094,0.794,-0.484,0.366,0.153,-0.153,80.0,4361.0,1.0
265,0.289,4.091,-8.869,-2.777,-2.022,-3.101,-5.379,6.157,-0.095,0.794,-0.483,0.336,0.214,0.031,80.0,4362.0,1.0
266,1.232,6.362,-7.281,-1.174,-2.139,-1.559,-5.544,3.491,-0.094,0.793,-0.484,0.336,0.031,0.031,80.0,4363.0,1.0
267,3.341,8.452,-5.066,0.296,-1.469,0.181,-5.406,1.111,-0.094,0.794,-0.487,0.366,0.031,0.0,80.0,4364.0,1.0
268,5.642,9.849,-2.935,0.148,-0.568,1.733,-5.133,-0.87,-0.092,0.795,-0.486,0.275,0.122,0.0,80.0,4365.0,1.0
269,7.552,10.581,-1.069,-0.777,0.318,3.061,-4.535,-1.817,-0.093,0.795,-0.484,0.305,0.183,-0.031,80.0,4366.0,1.0
270,9.303,10.942,0.9,0.161,1.328,4.213,-3.211,-0.925,-0.09,0.796,-0.488,0.275,0.275,0.061,80.0,4367.0,1.0
271,10.888,10.893,2.994,3.959,2.409,5.039,-0.991,1.848,-0.09,0.796,-0.488,0.244,0.275,0.122,80.0,4368.0,1.0
272,11.488,10.09,4.542,8.301,3.18,5.425,1.958,5.574,-0.09,0.794,-0.488,0.305,0.305,0.0,80.0,4369.0,1.0
273,10.63,8.533,5.023,10.258,3.492,5.625,5.287,8.97,-0.092,0.796,-0.486,0.305,0.427,-0.122,80.0,4370.0,1.0
274,9.226,6.871,4.804,9.298,3.651,6.041,8.537,11.055,-0.092,0.794,-0.485,0.336,0.458,-0.092,80.0,4371.0,1.0
275,8.84,5.978,4.872,7.114,4.05,6.867,11.256,11.546,-0.091,0.794,-0.485,0.275,0.488,-0.122,80.0,4372.0,1.0
276,10.29,6.402,6.177,5.992,4.942,8.117,13.249,11.018,-0.092,0.793,-0.487,0.244,0.488,-0.122,80.0,4373.0,1.0
277,13.397,8.183,9.162,7.507,6.575,9.712,14.629,10.627,-0.09,0.795,-0.485,0.244,0.58,-0.153,80.0,4374.0,1.0
278,17.567,10.971,13.588,11.617,9.144,11.363,15.489,11.359,-0.091,0.795,-0.487,0.275,0.702,-0.214,80.0,4375.0,1.0
279,21.905,14.095,18.571,16.765,12.543,12.645,15.75,13.444,-0.09,0.794,-0.486,0.153,0.793,-0.275,80.0,4376.0,1.0
280,25.152,16.599,22.857,21.257,16.205,13.262,15.348,16.314,-0.091,0.795,-0.484,0.336,0.824,-0.366,80.0,4377.0,1.0
281,26.467,17.708,25.449,24.444,19.317,13.213,14.375,18.917,-0.091,0.794,-0.481,0.305,0.824,-0.305,80.0,4378.0,1.0
282,26.23,17.436,26.157,26.289,21.264,12.689,13.07,20.33,-0.09,0.793,-0.486,0.397,0.916,-0.397,80.0,4379.0,1.0
283,25.475,16.451,25.465,26.29,21.88,11.788,11.723,20.302,-0.093,0.794,-0.487,0.397,0.946,-0.519,80.0,4380.0,1.0
284,24.797,15.472,24.035,23.764,21.384,10.471,10.592,19.26,-0.091,0.795,-0.485,0.366,1.007,-0.549,80.0,4381.0,1.0
285,24.278,14.968,22.498,19.234,20.304,8.941,9.917,18.014,-0.091,0.793,-0.485,0.488,1.099,-0.549,80.0,4382.0,1.0
286,24.064,15.121,21.38,14.586,19.267,7.706,9.829,17.349,-0.09,0.794,-0.484,0.549,1.19,-0.58,80.0,4383.0,1.0
287,24.301,15.652,20.729,11.622,18.547,7.065,10.113,17.502,-0.094,0.796,-0.484,0.58,1.099,-0.671,80.0,4384.0,1.0
288,24.613,15.792,19.908,10.979,17.852,6.785,10.286,17.998,-0.094,0.793,-0.482,0.58,1.16,-0.671,80.0,4385.0,1.0
289,24.251,14.842,18.07,12.041,16.687,6.444,10.026,18.142,-0.092,0.792,-0.485,0.61,1.221,-0.641,80.0,4386.0,1.0
290,22.837,12.857,14.893,13.041,14.812,5.88,9.421,17.462,-0.093,0.793,-0.481,0.702,1.282,-0.58,80.0,4387.0,1.0
291,20.677,10.546,10.86,12.021,12.369,5.271,8.795,15.752,-0.092,0.794,-0.483,0.854,1.434,-0.702,80.0,4388.0,1.0
292,18.353,8.519,6.93,8.612,9.713,4.938,8.42,13.112,-0.094,0.792,-0.481,0.793,1.404,-0.671,80.0,4389.0,1.0
293,16.374,6.858,3.928,4.437,7.187,5.058,8.316,10.019,-0.093,0.794,-0.482,0.885,1.373,-0.702,80.0,4390.0,1.0
294,15.262,5.41,2.25,1.801,5.123,5.579,8.288,7.284,-0.094,0.794,-0.486,0.977,1.404,-0.732,80.0,4391.0,1.0
295,15.35,4.126,1.847,1.996,3.821,6.237,8.069,5.756,-0.093,0.796,-0.484,0.946,1.373,-0.824,80.0,4392.0,1.0
296,16.167,3.015,2.178,4.137,3.273,6.621,7.345,5.738,-0.095,0.796,-0.483,0.946,1.434,-0.763,80.0,4393.0,1.0
297,16.749,2.251,2.671,5.888,3.246,6.533,5.933,6.776,-0.096,0.795,-0.483,0.977,1.373,-0.793,80.0,4394.0,1.0
298,16.93,2.476,3.525,5.889,3.827,6.338,4.133,8.186,-0.095,0.795,-0.478,1.099,1.404,-0.732,80.0,4395.0,1.0
299,17.652,4.475,5.55,4.963,5.431,6.605,2.614,9.565,-0.096,0.793,-0.479,1.038,1.404,-0.732,80.0,4396.0,1.0
300,19.709,8.305,9.081,4.742,8.054,7.268,1.751,10.707,-0.094,0.795,-0.48,1.099,1.404,-0.61,80.0,4397.0,1.0
301,22.858,13.135,13.567,6.076,10.987,7.518,1.258,11.551,-0.098,0.795,-0.483,1.099,1.434,-0.641,80.0,4398.0,1.0
302,26.516,18.072,18.343,9.173,13.54,6.789,0.664,12.45,-0.096,0.794,-0.483,1.129,1.373,-0.58,80.0,4399.0,1.0
303,30.592,22.626,23.233,14.152,15.67,5.489,-0.058,13.886,-0.097,0.794,-0.486,1.007,1.373,-0.549,80.0,4400.0,1.0
304,35.015,26.328,28.145,20.459,17.674,4.538,-0.539,15.708,-0.096,0.794,-0.483,1.007,1.221,-0.549,80.0,4401.0,1.0
305,39.071,28.729,32.628,26.515,19.68,4.615,-0.392,17.264,-0.096,0.795,-0.486,1.038,1.099,-0.458,80.0,4402.0,1.0
306,41.878,29.893,36.134,30.981,21.64,6.0,0.589,18.304,-0.097,0.795,-0.484,1.099,1.251,-0.458,80.0,4403.0,1.0
307,43.176,30.36,38.372,33.775,23.403,8.529,2.287,19.152,-0.096,0.795,-0.484,1.038,1.221,-0.519,80.0,4404.0,1.0
308,43.199,30.602,39.187,35.153,24.561,11.53,4.21,20.091,-0.094,0.797,-0.484,1.007,1.16,-0.427,80.0,4405.0,1.0
309,42.13,30.687,38.415,34.702,24.497,14.098,5.759,21.018,-0.093,0.798,-0.482,0.977,1.099,-0.366,80.0,4406.0,1.0
310,40.249,30.44,36.182,32.121,22.921,15.622,6.634,21.675,-0.095,0.797,-0.483,0.977,1.099,-0.366,80.0,4407.0,1.0
311,38.421,29.844,33.282,28.526,20.426,16.185,7.16,22.155,-0.095,0.796,-0.486,1.038,1.038,-0.275,80.0,4408.0,1.0
312,37.688,29.176,30.901,26.197,18.349,16.536,8.226,23.168,-0.097,0.796,-0.483,1.068,0.977,-0.275,80.0,4409.0,1.0
313,38.252,28.667,29.726,26.885,17.781,17.419,10.447,25.348,-0.096,0.796,-0.487,1.038,0.916,-0.275,80.0,4410.0,1.0
314,39.252,28.129,29.445,30.339,18.596,18.788,13.269,28.082,-0.096,0.797,-0.484,0.946,0.946,-0.275,80.0,4411.0,1.0
315,39.616,27.122,29.164,34.175,19.544,19.845,15.251,29.566,-0.095,0.798,-0.487,0.946,1.007,-0.183,80.0,4412.0,1.0
316,38.86,25.451,28.216,35.33,19.371,19.847,15.24,28.334,-0.097,0.796,-0.482,0.885,0.916,-0.183,80.0,4413.0,1.0
317,37.182,23.374,26.653,32.376,17.825,18.655,13.125,24.614,-0.096,0.796,-0.484,0.885,0.854,-0.153,80.0,4414.0,1.0
318,35.286,21.458,25.189,26.951,15.744,16.656,9.79,20.221,-0.096,0.796,-0.483,0.885,0.854,-0.275,80.0,4415.0,1.0
319,34.186,20.234,24.722,22.858,14.387,14.481,6.58,17.266,-0.097,0.798,-0.484,0.946,0.824,-0.275,80.0,4416.0,1.0
320,34.605,19.809,25.635,23.177,14.48,12.559,4.46,16.773,-0.094,0.797,-0.484,0.854,0.824,-0.153,80.0,4417.0,1.0
321,36.148,19.689,27.313,27.333,15.566,10.695,3.294,18.046,-0.094,0.798,-0.481,0.732,0.763,-0.183,80.0,4418.0,1.0
322,37.391,19.185,28.488,31.26,16.37,8.313,2.108,19.278,-0.096,0.798,-0.48,0.793,0.702,-0.153,80.0,4419.0,1.0
323,37.307,18.193,28.342,31.309,16.001,5.282,0.229,19.021,-0.095,0.796,-0.481,0.763,0.702,-0.214,80.0,4420.0,1.0
324,36.299,17.386,27.15,27.532,14.645,2.2,-2.079,17.187,-0.096,0.796,-0.484,0.793,0.702,-0.153,80.0,4421.0,1.0
325,35.414,17.377,25.713,22.771,13.01,-0.283,-4.127,14.755,-0.096,0.797,-0.483,0.763,0.61,-0.153,80.0,4422.0,1.0
326,35.019,17.862,24.442,19.518,11.431,-2.101,-5.462,12.698,-0.097,0.795,-0.481,0.763,0.58,-0.244,80.0,4423.0,1.0
327,34.816,17.909,23.253,18.431,9.842,-3.481,-5.876,11.442,-0.097,0.795,-0.482,0.824,0.549,-0.244,80.0,4424.0,1.0
328,34.605,16.854,21.999,19.001,8.278,-4.413,-5.307,11.055,-0.096,0.793,-0.483,0.824,0.519,-0.244,80.0,4425.0,1.0
329,34.191,14.543,20.41,20.168,6.754,-4.857,-4.205,11.212,-0.096,0.794,-0.48,0.763,0.519,-0.153,80.0,4426.0,1.0
330,33.005,11.173,18.037,20.616,4.981,-5.005,-3.543,11.092,-0.097,0.794,-0.482,0.763,0.519,-0.183,80.0,4427.0,1.0
331,30.735,7.528,14.893,19.544,2.813,-4.782,-3.936,9.986,-0.096,0.793,-0.482,0.854,0.458,-0.305,80.0,4428.0,1.0
332,28.163,4.982,11.829,17.004,0.754,-3.563,-4.963,8.002,-0.096,0.793,-0.482,0.916,0.458,-0.275,80.0,4429.0,1.0
333,26.7,4.569,9.9,13.655,-0.335,-0.91,-5.561,6.074,-0.094,0.793,-0.486,0.885,0.519,-0.183,80.0,4430.0,1.0
334,26.986,6.082,9.483,10.709,0.132,2.752,-4.876,5.288,-0.095,0.796,-0.482,0.977,0.458,-0.153,80.0,4431.0,1.0
335,28.337,8.303,10.141,9.575,2.113,6.501,-2.68,6.09,-0.096,0.799,-0.483,0.885,0.427,-0.275,80.0,4432.0,1.0
336,29.655,9.993,11.106,10.784,4.948,9.604,0.618,8.0,-0.097,0.798,-0.485,0.885,0.397,-0.244,80.0,4433.0,1.0
337,30.267,10.49,11.656,13.182,7.568,11.716,4.114,9.876,-0.097,0.797,-0.487,0.885,0.366,-0.122,80.0,4434.0,1.0
338,29.815,9.812,11.301,14.763,9.096,12.896,6.939,10.728,-0.096,0.798,-0.483,0.946,0.336,-0.122,80.0,4435.0,1.0
339,28.189,8.566,10.032,14.533,9.521,13.55,8.856,10.626,-0.097,0.798,-0.484,0.824,0.366,-0.214,80.0,4436.0,1.0
340,25.847,7.519,8.348,13.265,9.57,14.018,10.099,10.558,-0.097,0.798,-0.484,0.763,0.366,-0.153,80.0,4437.0,1.0
341,23.652,7.082,6.873,12.334,9.908,14.183,10.763,11.33,-0.097,0.798,-0.485,0.702,0.366,-0.183,80.0,4438.0,1.0
342,22.095,7.258,5.965,12.124,10.647,13.721,10.761,12.962,-0.095,0.795,-0.484,0.763,0.397,-0.122,80.0,4439.0,1.0
343,21.088,7.975,5.737,12.096,11.607,12.71,10.311,14.967,-0.096,0.798,-0.484,0.763,0.336,-0.214,80.0,4440.0,1.0
344,20.678,9.397,6.308,11.999,12.716,11.782,9.967,16.689,-0.096,0.798,-0.482,0.732,0.397,-0.214,80.0,4441.0,1.0
345,21.259,11.743,7.741,12.158,13.981,11.57,10.107,17.555,-0.096,0.799,-0.483,0.641,0.458,-0.214,80.0,4442.0,1.0
346,22.541,14.528,9.532,12.766,15.137,12.027,10.579,17.415,-0.095,0.797,-0.48,0.702,0.458,-0.122,80.0,4443.0,1.0
347,23.023,16.299,10.463,13.37,15.442,12.326,10.724,16.364,-0.096,0.797,-0.482,0.671,0.397,-0.061,80.0,4444.0,1.0
348,21.343,15.777,9.5,13.159,14.156,11.595,9.785,14.332,-0.097,0.796,-0.482,0.641,0.366,-0.092,80.0,4445.0,1.0
349,17.715,13.092,6.759,11.785,11.346,9.738,7.6,11.345,-0.097,0.796,-0.483,0.61,0.366,-0.183,80.0,4446.0,1.0
350,13.506,9.589,3.353,10.028,8.084,7.493,4.931,8.091,-0.095,0.798,-0.481,0.61,0.58,-0.061,80.0,4447.0,1.0
351,9.883,6.673,0.389,9.178,5.66,5.746,2.839,5.692,-0.094,0.795,-0.481,0.641,0.458,-0.031,80.0,4448.0,1.0
352,7.359,4.981,-1.714,9.218,4.625,4.969,1.811,4.731,-0.093,0.794,-0.483,0.671,0.397,-0.061,80.0,4449.0,1.0
353,6.283,4.535,-2.99,8.572,4.758,5.373,1.747,4.863,-0.093,0.794,-0.481,0.671,0.336,-0.031,80.0,4450.0,1.0
354,6.828,5.175,-3.423,6.146,5.722,7.128,2.449,5.395,-0.096,0.795,-0.479,0.763,0.397,-0.031,80.0,4451.0,1.0
355,8.304,6.416,-3.087,2.607,7.245,9.913,3.718,5.845,-0.1,0.796,-0.485,0.854,0.458,-0.061,80.0,4452.0,1.0
356,9.345,7.381,-2.366,-0.337,8.91,12.616,5.283,6.148,-0.1,0.797,-0.483,0.916,0.488,-0.031,80.0,4453.0,1.0
357,9.258,7.485,-1.548,-0.961,10.374,14.041,6.999,6.823,-0.099,0.796,-0.482,0.916,0.458,-0.061,80.0,4454.0,1.0
358,8.552,6.861,-0.541,1.649,11.597,13.826,8.861,8.478,-0.098,0.794,-0.483,0.916,0.488,-0.153,80.0,4455.0,1.0
359,7.878,5.816,0.594,6.296,12.451,12.481,10.67,10.638,-0.096,0.794,-0.481,1.099,0.397,-0.183,80.0,4456.0,1.0
360,7.356,4.446,1.401,9.787,12.582,10.856,12.04,11.838,-0.096,0.791,-0.479,1.129,0.488,-0.153,80.0,4457.0,1.0
361,7.36,3.111,1.869,10.009,12.071,9.706,12.822,11.303,-0.096,0.788,-0.48,1.251,0.488,-0.244,80.0,4458.0,1.0
362,8.807,2.651,2.842,8.233,11.64,9.38,13.141,9.771,-0.096,0.79,-0.477,1.434,0.549,-0.183,80.0,4459.0,1.0
363,11.824,3.438,4.904,7.033,11.721,9.554,12.931,8.388,-0.095,0.787,-0.481,1.526,0.58,-0.214,80.0,4460.0,1.0
364,15.039,4.566,7.367,7.051,11.818,9.374,11.827,7.465,-0.096,0.786,-0.481,1.617,0.641,-0.183,80.0,4461.0,1.0
365,16.972,4.745,8.985,7.102,11.251,8.241,9.707,6.524,-0.095,0.788,-0.483,1.801,0.702,-0.275,80.0,4462.0,1.0
366,17.44,3.775,9.315,6.553,10.163,6.464,7.093,5.183,-0.096,0.79,-0.482,1.74,0.763,-0.275,80.0,4463.0,1.0
367,17.025,2.546,8.837,6.167,9.304,4.869,4.715,3.611,-0.095,0.791,-0.481,1.862,0.763,-0.092,80.0,4464.0,1.0
368,16.022,1.896,8.167,6.695,9.065,3.845,2.862,2.215,-0.097,0.79,-0.481,1.862,0.732,-0.092,80.0,4465.0,1.0
369,14.789,2.156,7.803,7.969,9.285,3.14,1.488,1.392,-0.096,0.789,-0.483,2.014,0.854,-0.122,80.0,4466.0,1.0
370,14.356,3.524,8.34,9.811,9.864,2.555,0.737,1.651,-0.098,0.789,-0.484,2.167,0.854,-0.214,80.0,4467.0,1.0
371,15.647,6.029,10.146,12.59,10.955,2.322,0.901,3.43,-0.097,0.792,-0.483,2.258,0.885,-0.214,80.0,4468.0,1.0
372,18.373,9.103,12.83,16.219,12.591,2.78,2.084,6.586,-0.097,0.793,-0.485,2.35,0.854,-0.275,80.0,4469.0,1.0
373,21.334,11.843,15.512,19.463,14.541,4.094,4.289,10.216,-0.098,0.796,-0.485,2.441,0.916,-0.275,80.0,4470.0,1.0
374,23.498,13.832,17.5,20.702,16.465,6.182,7.49,12.999,-0.096,0.794,-0.487,2.502,0.885,-0.244,80.0,4471.0,1.0
375,24.358,15.24,18.465,19.033,17.99,8.67,11.249,13.935,-0.099,0.796,-0.489,2.502,0.977,-0.214,80.0,4472.0,1.0
376,23.68,16.102,18.268,14.78,18.723,10.954,14.538,12.94,-0.099,0.799,-0.489,2.563,0.977,-0.336,80.0,4473.0,1.0
377,21.678,16.078,17.049,9.544,18.498,12.479,16.312,10.827,-0.101,0.799,-0.486,2.563,0.885,-0.305,80.0,4474.0,1.0
378,19.283,15.028,15.42,5.676,17.676,13.046,16.291,8.809,-0.099,0.799,-0.485,2.502,0.946,-0.366,80.0,4475.0,1.0
379,17.444,13.319,14.086,4.691,16.888,12.883,14.983,7.742,-0.098,0.799,-0.486,2.502,0.946,-0.305,80.0,4476.0,1.0
380,16.229,11.582,13.305,6.12,16.543,12.544,13.224,7.722,-0.097,0.797,-0.485,2.472,0.916,-0.427,80.0,4477.0,1.0
381,15.165,10.609,13.052,8.515,16.855,12.806,11.93,8.503,-0.096,0.798,-0.482,2.441,0.916,-0.397,80.0,4478.0,1.0
382,14.133,11.179,13.365,10.786,17.981,14.298,11.794,9.812,-0.096,0.797,-0.486,2.502,0.916,-0.427,80.0,4479.0,1.0
383,13.369,13.436,14.161,12.238,19.749,16.968,12.802,11.195,-0.094,0.797,-0.49,2.502,1.038,-0.397,80.0,4480.0,1.0
384,12.925,16.582,15.092,12.722,21.608,20.053,14.344,12.336,-0.094,0.794,-0.487,2.472,1.038,-0.458,80.0,4481.0,1.0
385,12.608,19.437,15.763,12.871,23.025,22.652,15.877,13.537,-0.094,0.792,-0.484,2.502,1.099,-0.366,80.0,4482.0,1.0
386,12.241,21.068,15.811,13.246,23.636,24.148,17.135,15.18,-0.094,0.792,-0.484,2.533,1.16,-0.214,80.0,4483.0,1.0
387,11.59,20.882,14.821,13.594,23.113,24.196,17.799,16.893,-0.094,0.792,-0.485,2.502,1.312,-0.214,80.0,4484.0,1.0
388,10.179,18.734,12.515,13.185,21.192,22.704,17.437,17.638,-0.096,0.79,-0.489,2.563,1.343,-0.336,80.0,4485.0,1.0
389,7.693,15.29,9.177,11.51,17.985,20.04,15.87,16.579,-0.096,0.791,-0.488,2.502,1.373,-0.305,80.0,4486.0,1.0
390,4.699,11.963,5.825,8.823,14.205,17.088,13.434,13.924,-0.098,0.792,-0.486,2.594,1.434,-0.336,80.0,4487.0,1.0
391,2.454,10.1,3.651,5.954,10.796,14.78,10.684,10.799,-0.096,0.794,-0.486,2.533,1.373,-0.397,80.0,4488.0,1.0
392,1.741,10.116,3.115,3.395,8.186,13.463,7.882,8.021,-0.097,0.792,-0.482,2.563,1.434,-0.366,80.0,4489.0,1.0
393,2.317,11.447,3.759,0.956,6.181,12.837,5.018,5.343,-0.099,0.792,-0.484,2.472,1.465,-0.336,80.0,4490.0,1.0
394,3.617,13.24,4.9,-1.341,4.61,12.421,2.27,2.273,-0.096,0.792,-0.486,2.35,1.556,-0.488,80.0,4491.0,1.0
395,5.38,14.939,6.252,-2.501,3.775,11.996,0.177,-0.831,-0.095,0.793,-0.484,2.319,1.526,-0.458,80.0,4492.0,1.0
396,7.346,16.35,7.871,-1.192,4.235,11.82,-0.571,-2.814,-0.096,0.794,-0.485,2.167,1.526,-0.427,80.0,4493.0,1.0
397,9.013,17.614,9.791,2.849,6.392,12.612,0.583,-2.587,-0.096,0.793,-0.484,2.106,1.526,-0.58,80.0,4494.0,1.0
398,10.1,19.108,11.804,8.091,10.164,14.993,3.732,0.152,-0.094,0.793,-0.485,2.014,1.587,-0.671,80.0,4495.0,1.0
399,10.818,20.955,13.437,12.147,14.774,18.643,8.2,4.735,-0.094,0.794,-0.485,1.984,1.495,-0.641,80.0,4496.0,1.0
400,11.29,22.511,14.095,13.542,18.895,22.176,12.673,9.716,-0.094,0.795,-0.49,1.892,1.526,-0.641,80.0,4497.0,1.0
401,11.11,22.823,13.367,12.311,21.261,24.148,15.974,13.539,-0.095,0.794,-0.49,1.74,1.617,-0.702,80.0,4498.0,1.0
402,9.859,21.605,11.315,9.31,21.38,24.168,17.772,15.42,-0.095,0.796,-0.49,1.648,1.77,-0.702,80.0,4499.0,1.0
403,7.802,19.408,8.517,5.573,19.681,22.949,18.342,15.493,-0.095,0.796,-0.489,1.373,1.709,-0.671,80.0,4500.0,1.0
404,5.829,17.079,5.917,2.295,17.145,21.648,18.026,14.397,-0.096,0.796,-0.489,1.312,1.74,-0.641,80.0,4501.0,1.0
405,4.674,15.248,4.44,1.044,14.86,21.219,17.217,13.122,-0.098,0.796,-0.49,1.16,1.678,-0.671,80.0,4502.0,1.0
406,4.299,13.993,4.325,3.013,13.533,21.84,16.398,12.7,-0.097,0.797,-0.488,0.946,1.648,-0.702,80.0,4503.0,1.0
407,4.082,12.899,4.805,7.353,13.083,22.686,15.856,13.465,-0.098,0.797,-0.487,0.793,1.709,-0.641,80.0,4504.0,1.0
408,3.461,11.531,4.764,11.451,12.881,22.502,15.574,15.046,-0.101,0.795,-0.488,0.702,1.74,-0.702,80.0,4505.0,1.0
409,2.278,9.816,3.776,13.614,12.45,20.536,15.374,17.18,-0.099,0.794,-0.486,0.549,1.648,-0.549,80.0,4506.0,1.0
410,0.642,7.855,2.119,13.583,11.379,16.687,14.676,19.296,-0.101,0.795,-0.488,0.427,1.648,-0.58,80.0,4507.0,1.0
411,-1.123,5.652,0.152,10.921,8.929,11.13,12.386,19.451,-0.103,0.796,-0.486,0.397,1.587,-0.519,80.0,4508.0,1.0
412,-2.191,3.439,-1.5,6.003,4.864,4.568,7.954,15.834,-0.102,0.796,-0.487,0.275,1.465,-0.488,80.0,4509.0,1.0
413,-1.573,1.871,-1.722,1.677,0.299,-1.468,2.376,9.366,-0.102,0.794,-0.49,0.153,1.526,-0.458,80.0,4510.0,1.0
414,0.931,1.545,0.276,1.294,-3.051,-5.33,-2.468,3.219,-0.103,0.794,-0.489,0.0,1.404,-0.397,80.0,4511.0,1.0
415,4.614,2.625,4.234,5.41,-4.117,-6.222,-5.163,-0.06,-0.103,0.795,-0.486,-0.122,1.312,-0.336,80.0,4512.0,1.0
416,8.523,4.893,9.026,11.251,-3.001,-4.613,-5.477,-0.319,-0.105,0.794,-0.484,-0.122,1.251,-0.244,80.0,4513.0,1.0
417,11.702,7.682,13.226,15.28,-0.825,-2.031,-4.259,0.839,-0.104,0.793,-0.484,-0.153,1.16,-0.153,80.0,4514.0,1.0
418,13.371,9.977,15.754,16.303,1.064,-0.202,-2.749,1.898,-0.104,0.793,-0.485,-0.244,1.129,-0.092,80.0,4515.0,1.0
419,13.39,10.969,16.305,15.742,1.941,-0.102,-1.841,2.395,-0.102,0.791,-0.485,-0.122,1.099,-0.061,80.0,4516.0,1.0
420,12.179,10.411,15.139,14.897,1.778,-1.658,-1.753,2.438,-0.102,0.791,-0.49,-0.183,0.946,0.061,80.0,4517.0,1.0
421,10.246,8.571,12.818,13.592,0.964,-3.922,-1.955,2.28,-0.101,0.791,-0.489,-0.153,0.793,0.153,80.0,4518.0,1.0
422,8.162,6.166,10.337,11.93,0.194,-5.435,-1.452,2.451,-0.101,0.792,-0.489,0.0,0.763,0.183,80.0,4519.0,1.0
423,6.651,4.145,8.896,11.358,0.117,-5.108,0.327,3.54,-0.101,0.789,-0.488,-0.031,0.702,0.275,80.0,4520.0,1.0
424,6.297,3.21,9.168,13.345,0.845,-3.08,2.886,5.72,-0.099,0.79,-0.485,-0.092,0.61,0.397,80.0,4521.0,1.0
425,7.207,3.505,10.94,17.888,1.989,-0.464,5.155,8.562,-0.101,0.792,-0.486,-0.061,0.58,0.427,80.0,4522.0,1.0
426,8.872,4.657,13.271,22.994,3.062,1.647,6.453,11.12,-0.098,0.792,-0.484,0.0,0.58,0.458,80.0,4523.0,1.0
427,10.346,5.965,14.855,25.316,3.627,2.677,6.713,12.263,-0.096,0.791,-0.486,0.122,0.58,0.61,80.0,4524.0,1.0
428,10.816,6.751,14.662,22.546,3.31,2.443,6.057,11.234,-0.097,0.792,-0.484,0.153,0.58,0.61,80.0,4525.0,1.0
429,10.061,6.811,12.637,15.797,2.049,1.179,4.679,8.263,-0.096,0.793,-0.484,0.092,0.641,0.702,80.0,4526.0,1.0
430,8.357,6.476,9.713,8.783,0.291,-0.357,3.084,4.61,-0.097,0.795,-0.487,0.061,0.61,0.641,80.0,4527.0,1.0
431,6.18,6.194,7.073,4.594,-1.221,-1.167,1.985,1.647,-0.098,0.795,-0.482,0.061,0.671,0.732,80.0,4528.0,1.0
432,4.083,6.179,5.504,3.933,-1.837,-0.597,1.885,0.008,-0.096,0.792,-0.479,0.031,0.702,0.671,80.0,4529.0,1.0
433,2.361,6.269,5.087,5.54,-1.418,1.123,2.702,-0.482,-0.092,0.788,-0.481,-0.031,0.763,0.58,80.0,4530.0,1.0
434,0.735,5.997,5.158,7.125,-0.532,2.983,3.755,-0.462,-0.091,0.787,-0.479,0.183,0.732,0.732,80.0,4531.0,1.0
435,-1.104,5.14,4.898,6.845,0.05,4.078,4.305,-0.482,-0.092,0.789,-0.481,0.275,0.854,0.641,80.0,4532.0,1.0
436,-2.592,4.182,4.223,4.887,0.132,4.284,4.099,-0.536,-0.091,0.79,-0.484,0.275,1.038,0.549,80.0,4533.0,1.0
437,-2.466,3.913,3.942,3.478,0.182,3.925,3.302,-0.176,-0.094,0.79,-0.484,0.214,1.129,0.519,80.0,4534.0,1.0
438,-0.1,4.544,4.906,5.022,0.665,3.086,2.095,0.889,-0.094,0.79,-0.482,0.305,1.129,0.427,80.0,4535.0,1.0
439,3.471,5.359,6.963,9.586,1.332,1.421,0.379,2.123,-0.093,0.789,-0.483,0.397,1.251,0.397,80.0,4536.0,1.0
440,6.596,5.516,9.167,14.711,1.453,-1.344,-2.04,2.327,-0.091,0.791,-0.486,0.397,1.373,0.336,80.0,4537.0,1.0
441,8.887,5.006,10.987,18.311,0.803,-4.711,-4.869,0.813,-0.093,0.792,-0.482,0.458,1.434,0.214,80.0,4538.0,1.0
442,10.698,4.287,12.289,19.789,-0.283,-7.593,-7.318,-2.087,-0.095,0.794,-0.485,0.458,1.556,0.0,80.0,4539.0,1.0
443,11.21,3.163,12.185,18.077,-1.846,-9.317,-8.82,-5.71,-0.094,0.792,-0.485,0.366,1.465,0.092,80.0,4540.0,1.0
444,8.693,0.701,9.141,11.535,-4.519,-10.233,-9.463,-9.551,-0.094,0.792,-0.485,0.458,1.556,-0.092,80.0,4541.0,1.0
445,2.507,-3.712,2.559,0.572,-8.654,-11.283,-9.724,-13.156,-0.095,0.791,-0.487,0.549,1.648,-0.214,80.0,4542.0,1.0
446,-5.934,-9.513,-6.178,-11.246,-13.604,-12.967,-9.894,-15.996,-0.097,0.792,-0.487,0.641,1.709,-0.336,80.0,4543.0,1.0
447,-14.087,-15.267,-14.406,-19.387,-18.007,-14.764,-9.811,-17.549,-0.096,0.794,-0.484,0.763,1.587,-0.397,80.0,4544.0,1.0
448,-19.602,-19.506,-19.765,-21.521,-20.65,-15.569,-9.203,-17.594,-0.095,0.794,-0.484,0.732,1.648,-0.397,80.0,4545.0,1.0
449,-21.039,-21.214,-21.201,-18.688,-21.078,-14.551,-8.115,-16.508,-0.095,0.794,-0.485,0.641,1.587,-0.458,80.0,4546.0,1.0
450,-18.432,-20.036,-19.101,-13.739,-19.559,-11.599,-6.776,-15.001,-0.093,0.796,-0.483,0.732,1.617,-0.61,80.0,4547.0,1.0
451,-13.531,-16.488,-14.901,-8.758,-16.657,-7.257,-5.158,-13.346,-0.095,0.799,-0.487,0.702,1.617,-0.641,80.0,4548.0,1.0
452,-8.6,-11.77,-10.147,-3.605,-12.779,-2.338,-2.903,-11.039,-0.095,0.798,-0.486,0.61,1.648,-0.641,80.0,4549.0,1.0
453,-4.787,-7.257,-5.771,2.874,-8.168,2.445,0.161,-7.499,-0.096,0.796,-0.485,0.671,1.709,-0.58,80.0,4550.0,1.0
454,-2.354,-4.286,-2.512,9.904,-3.516,6.319,3.401,-3.203,-0.098,0.796,-0.484,0.702,1.77,-0.519,80.0,4551.0,1.0
455,-1.868,-4.013,-1.488,14.072,-0.267,8.192,5.442,-0.033,-0.095,0.797,-0.487,0.671,1.709,-0.549,80.0,4552.0,1.0
456,-3.836,-6.717,-3.457,12.149,0.184,7.154,5.101,-0.238,-0.095,0.796,-0.487,0.641,1.831,-0.488,80.0,4553.0,1.0
457,-7.539,-11.169,-7.717,4.082,-2.303,3.336,2.374,-4.561,-0.095,0.798,-0.486,0.702,1.892,-0.427,80.0,4554.0,1.0
458,-11.4,-15.222,-12.45,-6.752,-6.392,-1.985,-1.528,-11.248,-0.096,0.798,-0.484,0.702,1.831,-0.366,80.0,4555.0,1.0
459,-14.511,-17.417,-16.2,-15.891,-10.284,-7.169,-5.029,-17.218,-0.098,0.8,-0.484,0.641,1.77,-0.397,80.0,4556.0,1.0
460,-17.1,-17.887,-18.693,-20.603,-12.789,-10.969,-7.052,-20.233,-0.098,0.8,-0.483,0.61,1.923,-0.275,80.0,4557.0,1.0
461,-19.442,-17.643,-20.225,-20.839,-13.595,-12.727,-7.312,-19.996,-0.101,0.799,-0.484,0.458,1.831,-0.244,80.0,4558.0,1.0
462,-21.064,-17.422,-20.873,-18.107,-13.001,-12.369,-6.184,-17.719,-0.098,0.796,-0.485,0.305,1.77,-0.275,80.0,4559.0,1.0
463,-21.407,-17.461,-20.624,-14.159,-11.662,-10.508,-4.392,-15.007,-0.098,0.795,-0.484,0.305,1.678,-0.305,80.0,4560.0,1.0
464,-20.573,-17.676,-19.712,-10.133,-10.249,-8.156,-2.546,-12.86,-0.099,0.795,-0.486,0.427,1.617,-0.275,80.0,4561.0,1.0
465,-18.85,-17.471,-18.291,-5.799,-8.915,-5.933,-0.729,-11.25,-0.098,0.797,-0.485,0.397,1.617,-0.305,80.0,4562.0,1.0
466,-16.282,-16.035,-16.22,0.07,-7.311,-3.799,1.315,-9.581,-0.101,0.797,-0.486,0.397,1.556,-0.275,80.0,4563.0,1.0
467,-13.295,-13.56,-13.612,7.748,-5.386,-1.771,3.486,-7.692,-0.099,0.795,-0.484,0.427,1.465,-0.214,80.0,4564.0,1.0
468,-11.061,-11.586,-11.212,15.179,-3.879,-0.53,5.109,-6.183,-0.098,0.795,-0.483,0.488,1.343,-0.305,80.0,4565.0,1.0
469,-10.781,-11.706,-10.112,18.61,-3.908,-1.061,5.454,-5.888,-0.097,0.792,-0.481,0.488,1.343,-0.305,80.0,4566.0,1.0
470,-12.708,-14.271,-11.069,14.979,-6.114,-3.722,4.37,-7.322,-0.096,0.793,-0.482,0.488,1.312,-0.305,80.0,4567.0,1.0
471,-15.781,-18.153,-13.682,5.021,-9.894,-7.517,2.574,-10.062,-0.097,0.793,-0.48,0.58,1.282,-0.305,80.0,4568.0,1.0
472,-18.221,-21.406,-16.374,-6.28,-13.499,-10.359,1.346,-12.658,-0.097,0.793,-0.481,0.58,1.19,-0.366,80.0,4569.0,1.0
473,-18.666,-22.366,-17.522,-13.205,-15.159,-10.358,1.721,-13.72,-0.096,0.793,-0.484,0.549,1.373,-0.397,80.0,4570.0,1.0
474,-16.937,-20.434,-16.542,-13.313,-14.133,-6.978,3.892,-12.898,-0.096,0.793,-0.483,0.763,1.221,-0.336,80.0,4571.0,1.0
475,-14.098,-16.254,-14.064,-8.615,-10.962,-1.204,7.234,-10.691,-0.096,0.794,-0.48,0.793,1.221,-0.305,80.0,4572.0,1.0
476,-11.585,-11.29,-11.152,-2.97,-6.791,5.305,11.01,-7.426,-0.095,0.793,-0.486,0.793,1.129,-0.397,80.0,4573.0,1.0
477,-9.959,-6.997,-8.343,1.721,-2.438,11.139,14.93,-2.723,-0.096,0.792,-0.486,0.824,1.221,-0.427,80.0,4574.0,1.0
478,-8.949,-4.379,-5.895,5.409,1.443,15.09,18.587,3.316,-0.097,0.792,-0.482,0.885,1.221,-0.488,80.0,4575.0,1.0
479,-8.587,-4.036,-4.606,7.005,3.736,16.067,20.896,8.975,-0.095,0.792,-0.48,1.038,1.19,-0.458,80.0,4576.0,1.0
480,-9.257,-5.892,-5.242,4.844,3.512,13.967,20.887,12.089,-0.098,0.79,-0.48,1.099,1.16,-0.427,80.0,4577.0,1.0
481,-10.647,-8.803,-7.287,-0.345,1.161,10.171,18.73,11.924,-0.096,0.792,-0.481,1.19,1.007,-0.488,80.0,4578.0,1.0
482,-11.642,-11.029,-9.119,-5.369,-1.726,6.662,15.688,9.514,-0.096,0.792,-0.483,1.19,1.007,-0.458,80.0,4579.0,1.0
483,-11.394,-11.49,-9.395,-7.298,-3.587,4.674,13.179,6.639,-0.097,0.79,-0.485,1.251,1.038,-0.488,80.0,4580.0,1.0
484,-10.107,-10.592,-7.993,-5.386,-3.941,4.025,11.808,4.614,-0.097,0.791,-0.487,1.312,1.099,-0.519,80.0,4581.0,1.0
485,-8.922,-9.721,-5.967,-1.334,-3.47,3.502,11.179,3.614,-0.097,0.792,-0.485,1.282,1.007,-0.427,80.0,4582.0,1.0
486,-9.061,-9.954,-4.81,1.495,-3.317,1.959,10.534,2.684,-0.097,0.792,-0.484,1.282,1.038,-0.397,80.0,4583.0,1.0
487,-10.784,-11.26,-5.385,0.352,-4.128,-0.658,9.579,0.749,-0.099,0.795,-0.484,1.373,1.038,-0.519,80.0,4584.0,1.0
488,-13.303,-12.816,-7.36,-4.492,-5.545,-3.251,8.737,-2.036,-0.097,0.795,-0.484,1.312,1.068,-0.458,80.0,4585.0,1.0
489,-15.65,-13.825,-9.687,-10.201,-6.636,-4.576,8.623,-4.242,-0.098,0.793,-0.483,1.312,0.977,-0.488,80.0,4586.0,1.0
490,-17.092,-13.904,-11.375,-14.178,-6.738,-4.253,9.373,-4.578,-0.098,0.795,-0.481,1.404,0.885,-0.397,80.0,4587.0,1.0
491,-17.064,-13.102,-11.894,-15.713,-5.896,-2.885,10.494,-3.147,-0.1,0.794,-0.481,1.404,0.977,-0.427,80.0,4588.0,1.0
492,-15.537,-11.948,-11.35,-15.339,-4.689,-1.444,11.323,-1.174,-0.099,0.793,-0.479,1.373,0.885,-0.366,80.0,4589.0,1.0
493,-13.363,-11.289,-10.459,-14.051,-3.823,-0.597,11.502,0.201,-0.099,0.794,-0.482,1.343,0.885,-0.397,80.0,4590.0,1.0
494,-11.536,-11.617,-9.959,-12.855,-3.704,-0.364,11.024,0.554,-0.098,0.792,-0.483,1.373,0.824,-0.397,80.0,4591.0,1.0
495,-10.057,-12.34,-9.724,-11.782,-4.037,-0.092,10.223,0.186,-0.098,0.793,-0.484,1.312,0.916,-0.397,80.0,4592.0,1.0
496,-8.181,-12.117,-8.869,-9.842,-3.991,1.069,9.701,-0.048,-0.099,0.794,-0.483,1.343,0.824,-0.336,80.0,4593.0,1.0
497,-5.763,-10.292,-6.971,-6.622,-3.116,3.213,9.727,0.568,-0.097,0.795,-0.484,1.373,0.916,-0.214,80.0,4594.0,1.0
498,-3.69,-7.747,-4.814,-3.335,-1.971,5.234,9.784,1.772,-0.096,0.794,-0.484,1.282,0.946,-0.153,80.0,4595.0,1.0
499,-3.006,-6.09,-3.742,-2.139,-1.64,5.694,9.094,2.436,-0.096,0.796,-0.485,1.282,1.007,-0.122,80.0,4596.0,1.0
500,-4.13,-6.284,-4.568,-4.549,-2.833,4.082,7.436,1.565,-0.098,0.796,-0.483,1.251,0.977,-0.183,80.0,4597.0,1.0
501,-6.78,-8.223,-7.114,-10.095,-5.515,1.056,5.168,-0.97,-0.098,0.796,-0.483,1.19,1.007,-0.214,80.0,4598.0,1.0
502,-10.077,-11.155,-10.434,-16.318,-9.032,-2.306,2.751,-4.427,-0.094,0.795,-0.485,1.129,1.038,-0.122,80.0,4599.0,1.0
503,-12.673,-14.048,-13.254,-20.472,-12.379,-5.234,0.447,-7.769,-0.094,0.794,-0.484,1.099,1.038,-0.092,80.0,4600.0,1.0
504,-13.286,-15.784,-14.393,-21.152,-14.495,-7.372,-1.621,-10.169,-0.095,0.795,-0.486,1.068,1.129,-0.031,80.0,4601.0,1.0
505,-11.616,-15.606,-13.253,-18.487,-14.684,-8.545,-3.192,-11.048,-0.094,0.795,-0.486,1.038,1.16,-0.061,80.0,4602.0,1.0
506,-8.746,-13.694,-10.289,-13.755,-13.063,-8.676,-3.859,-10.197,-0.095,0.796,-0.487,0.977,1.099,-0.092,80.0,4603.0,1.0
507,-6.208,-11.01,-6.731,-8.566,-10.473,-7.792,-3.337,-7.98,-0.097,0.795,-0.485,0.946,1.19,-0.122,80.0,4604.0,1.0
508,-4.761,-8.556,-3.737,-3.995,-7.887,-5.992,-1.667,-5.171,-0.094,0.794,-0.485,0.885,1.251,-0.092,80.0,4605.0,1.0
509,-4.427,-6.981,-1.987,-0.898,-6.077,-3.562,0.702,-2.698,-0.097,0.795,-0.485,0.854,1.312,-0.061,80.0,4606.0,1.0
510,-5.163,-6.635,-1.778,-0.417,-5.507,-1.133,3.021,-1.31,-0.096,0.797,-0.484,0.824,1.404,0.0,80.0,4607.0,1.0
511,-6.948,-7.614,-3.074,-3.287,-6.218,0.462,4.533,-1.276,-0.096,0.798,-0.487,0.946,1.373,-0.061,80.0,4608.0,1.0
512,-9.457,-9.655,-5.445,-8.673,-7.835,0.661,4.743,-2.426,-0.098,0.798,-0.484,0.824,1.434,-0.031,80.0,4609.0,1.0
513,-12.067,-12.034,-8.037,-13.816,-9.551,-0.285,3.744,-4.009,-0.095,0.796,-0.485,0.732,1.373,-0.122,80.0,4610.0,1.0
514,-14.132,-13.768,-9.854,-15.356,-10.254,-1.288,2.314,-4.707,-0.094,0.797,-0.486,0.763,1.373,-0.153,80.0,4611.0,1.0
515,-15.086,-14.09,-10.237,-11.851,-9.185,-1.131,1.38,-3.834,-0.095,0.795,-0.484,0.549,1.434,-0.214,80.0,4612.0,1.0
516,-14.585,-12.884,-9.227,-5.181,-6.589,0.713,1.412,-2.248,-0.096,0.795,-0.482,0.61,1.465,-0.183,80.0,4613.0,1.0
517,-13.004,-10.778,-7.567,0.811,-3.556,3.732,2.321,-1.326,-0.094,0.796,-0.482,0.61,1.495,-0.092,80.0,4614.0,1.0
518,-11.485,-8.79,-6.321,3.08,-1.268,6.719,3.692,-1.553,-0.095,0.795,-0.48,0.61,1.556,-0.092,80.0,4615.0,1.0
519,-11.106,-7.731,-6.341,0.823,-0.419,8.584,4.969,-2.588,-0.095,0.793,-0.483,0.549,1.526,-0.183,80.0,4616.0,1.0
520,-12.143,-7.81,-7.938,-4.955,-1.096,9.008,5.642,-4.175,-0.096,0.796,-0.482,0.549,1.465,-0.305,80.0,4617.0,1.0
521,-14.309,-8.736,-10.876,-12.449,-2.914,8.505,5.487,-6.454,-0.095,0.798,-0.482,0.458,1.556,-0.305,80.0,4618.0,1.0
522,-17.294,-10.086,-14.523,-19.699,-5.14,7.973,4.79,-9.287,-0.097,0.798,-0.484,0.488,1.556,-0.336,80.0,4619.0,1.0
523,-20.45,-11.257,-17.841,-24.653,-6.709,8.16,4.313,-11.611,-0.095,0.795,-0.484,0.488,1.556,-0.214,80.0,4620.0,1.0
524,-22.409,-11.336,-19.545,-25.237,-6.484,9.438,4.922,-11.86,-0.096,0.795,-0.482,0.519,1.556,-0.275,80.0,4621.0,1.0
525,-22.153,-9.784,-18.925,-20.489,-3.988,11.749,7.02,-9.104,-0.097,0.794,-0.486,0.519,1.617,-0.244,80.0,4622.0,1.0
526,-20.545,-7.39,-16.762,-12.419,-0.181,14.35,10.064,-3.992,-0.098,0.797,-0.483,0.58,1.709,-0.244,80.0,4623.0,1.0
527,-19.807,-5.974,-15.029,-5.895,2.702,15.786,12.608,1.236,-0.096,0.796,-0.486,0.61,1.709,-0.214,80.0,4624.0,1.0
528,-21.138,-6.813,-15.168,-5.047,2.72,14.834,13.31,4.084,-0.097,0.794,-0.486,0.641,1.648,-0.214,80.0,4625.0,1.0
529,-23.75,-9.705,-16.989,-10.018,-0.326,11.509,11.916,3.45,-0.098,0.793,-0.486,0.58,1.648,-0.214,80.0,4626.0,1.0
530,-26.358,-13.59,-19.473,-17.861,-5.107,6.844,9.102,0.103,-0.097,0.791,-0.487,0.732,1.709,-0.214,80.0,4627.0,1.0
531,-28.434,-17.397,-21.832,-25.299,-9.891,2.078,5.806,-4.063,-0.096,0.793,-0.482,0.702,1.74,-0.153,80.0,4628.0,1.0
532,-29.871,-20.257,-23.562,-30.24,-13.437,-1.81,2.788,-7.372,-0.097,0.795,-0.48,0.702,1.709,-0.122,80.0,4629.0,1.0
533,-30.508,-21.583,-24.275,-32.092,-15.373,-4.265,0.429,-9.349,-0.096,0.794,-0.483,0.763,1.648,-0.061,80.0,4630.0,1.0
534,-30.303,-21.22,-23.791,-31.244,-15.938,-5.086,-1.086,-10.421,-0.097,0.793,-0.486,0.824,1.648,-0.061,80.0,4631.0,1.0
535,-29.426,-19.352,-22.123,-28.004,-15.331,-4.213,-1.431,-10.852,-0.097,0.794,-0.482,0.885,1.648,-0.061,80.0,4632.0,1.0
536,-27.972,-16.298,-19.421,-22.337,-13.512,-1.713,-0.274,-10.41,-0.097,0.791,-0.479,0.854,1.587,-0.092,80.0,4633.0,1.0
537,-26.036,-12.61,-16.228,-15.187,-10.75,1.935,2.226,-9.22,-0.097,0.791,-0.48,0.977,1.587,-0.061,80.0,4634.0,1.0
538,-24.25,-9.348,-13.725,-9.578,-8.154,5.656,5.199,-8.392,-0.095,0.793,-0.485,1.038,1.648,-0.031,80.0,4635.0,1.0
539,-23.615,-7.794,-13.206,-8.973,-7.24,8.137,7.47,-9.132,-0.097,0.794,-0.485,1.007,1.678,-0.031,80.0,4636.0,1.0
540,-24.34,-8.511,-14.987,-14.006,-8.719,8.564,8.315,-11.379,-0.096,0.794,-0.485,1.068,1.556,0.0,80.0,4637.0,1.0
541,-25.436,-10.966,-18.083,-21.654,-11.878,6.951,7.797,-13.812,-0.096,0.792,-0.483,1.068,1.526,0.061,80.0,4638.0,1.0
542,-25.882,-14.145,-21.078,-27.799,-15.218,3.73,6.386,-14.937,-0.095,0.792,-0.484,1.16,1.556,0.031,80.0,4639.0,1.0
543,-25.567,-17.087,-22.961,-29.914,-17.404,-0.535,4.537,-13.846,-0.096,0.793,-0.482,1.16,1.465,0.092,80.0,4640.0,1.0
544,-24.755,-18.847,-23.232,-27.785,-17.712,-4.965,2.691,-10.667,-0.095,0.792,-0.482,1.221,1.556,0.061,80.0,4641.0,1.0
545,-23.36,-18.658,-21.814,-23.03,-16.208,-8.514,1.208,-7.024,-0.096,0.793,-0.485,1.221,1.587,-0.031,80.0,4642.0,1.0
546,-21.272,-16.487,-19.083,-17.994,-13.683,-10.501,0.199,-5.366,-0.094,0.792,-0.485,1.282,1.526,0.0,80.0,4643.0,1.0
547,-19.03,-13.3,-15.872,-14.612,-11.23,-10.921,-0.471,-7.056,-0.094,0.792,-0.484,1.312,1.556,0.031,80.0,4644.0,1.0
548,-17.575,-10.51,-13.261,-13.994,-9.773,-10.336,-1.035,-11.351,-0.096,0.793,-0.482,1.282,1.556,-0.092,80.0,4645.0,1.0
549,-17.318,-9.023,-12.043,-16.389,-9.756,-9.567,-1.685,-16.301,-0.095,0.793,-0.485,1.221,1.495,-0.031,80.0,4646.0,1.0
550,-17.81,-8.867,-12.204,-20.923,-11.028,-9.379,-2.497,-20.161,-0.094,0.793,-0.483,1.312,1.587,-0.061,80.0,4647.0,1.0
551,-18.191,-9.471,-12.817,-25.2,-12.85,-10.033,-3.297,-21.942,-0.094,0.793,-0.487,1.373,1.587,0.0,80.0,4648.0,1.0
552,-17.694,-10.053,-12.567,-26.112,-14.134,-10.93,-3.562,-21.438,-0.094,0.794,-0.488,1.343,1.648,0.031,80.0,4649.0,1.0
553,-16.117,-10.05,-10.828,-22.68,-14.144,-11.053,-2.757,-19.377,-0.094,0.793,-0.487,1.282,1.465,-0.122,80.0,4650.0,1.0
554,-14.176,-9.418,-8.245,-17.648,-13.042,-9.833,-0.836,-17.141,-0.094,0.794,-0.486,1.16,1.526,-0.153,80.0,4651.0,1.0
555,-13.069,-8.39,-5.916,-14.67,-11.415,-7.309,1.88,-15.573,-0.094,0.794,-0.489,1.251,1.495,-0.122,80.0,4652.0,1.0
556,-13.389,-7.021,-4.293,-14.757,-9.517,-3.799,5.128,-14.281,-0.095,0.794,-0.486,1.312,1.495,-0.153,80.0,4653.0,1.0
557,-14.567,-5.172,-3.103,-16.37,-7.33,0.043,8.614,-12.602,-0.094,0.794,-0.486,1.282,1.465,-0.092,80.0,4654.0,1.0
558,-15.536,-2.906,-2.037,-17.799,-5.148,3.092,11.692,-10.747,-0.095,0.795,-0.489,1.282,1.434,-0.214,80.0,4655.0,1.0
559,-15.843,-0.809,-1.193,-18.688,-3.664,4.195,13.508,-9.338,-0.095,0.797,-0.488,1.282,1.495,-0.153,80.0,4656.0,1.0
560,-15.704,0.303,-0.774,-19.391,-3.414,2.936,13.567,-8.298,-0.095,0.794,-0.486,1.221,1.526,-0.122,80.0,4657.0,1.0
561,-15.068,0.111,-0.537,-19.57,-4.276,-0.006,12.071,-7.062,-0.095,0.795,-0.484,1.129,1.495,-0.092,80.0,4658.0,1.0
562,-13.431,-0.953,0.009,-18.599,-5.71,-3.308,9.687,-5.748,-0.096,0.793,-0.483,1.038,1.465,-0.061,80.0,4659.0,1.0
563,-10.834,-2.244,0.917,-16.997,-7.251,-5.841,7.075,-5.221,-0.095,0.797,-0.484,0.977,1.434,-0.122,80.0,4660.0,1.0
564,-8.24,-3.319,1.767,-16.084,-8.603,-7.217,4.599,-5.98,-0.095,0.799,-0.485,0.885,1.434,-0.214,80.0,4661.0,1.0
565,-6.449,-3.802,2.343,-16.319,-9.492,-7.778,2.318,-7.667,-0.097,0.799,-0.484,0.854,1.434,-0.183,80.0,4662.0,1.0
566,-5.146,-3.253,3.049,-16.569,-9.513,-8.064,0.334,-9.289,-0.096,0.798,-0.485,0.793,1.465,-0.183,80.0,4663.0,1.0
567,-3.51,-1.471,4.516,-14.886,-8.151,-8.198,-0.791,-9.46,-0.096,0.795,-0.482,0.671,1.312,-0.214,80.0,4664.0,1.0
568,-1.49,1.057,6.715,-10.398,-5.313,-7.852,-0.344,-7.364,-0.097,0.797,-0.481,0.641,1.373,-0.153,80.0,4665.0,1.0
569,0.013,3.245,8.594,-5.095,-1.812,-6.669,1.825,-3.848,-0.095,0.798,-0.485,0.702,1.343,-0.183,80.0,4666.0,1.0
570,0.186,4.213,8.906,-2.873,1.148,-4.459,5.27,-0.77,-0.096,0.799,-0.484,0.519,1.343,-0.092,80.0,4667.0,1.0
571,-0.9,3.95,7.434,-5.71,2.919,-1.24,9.358,0.734,-0.097,0.799,-0.486,0.366,1.343,-0.153,80.0,4668.0,1.0
572,-2.578,3.024,5.1,-11.767,3.542,2.519,13.307,0.827,-0.094,0.797,-0.482,0.397,1.221,-0.122,80.0,4669.0,1.0
573,-4.086,1.904,3.04,-17.673,3.181,5.794,16.122,0.168,-0.095,0.797,-0.484,0.366,1.221,-0.061,80.0,4670.0,1.0
574,-4.553,0.878,2.027,-20.95,1.959,7.514,17.003,-0.768,-0.096,0.796,-0.485,0.244,1.221,-0.061,80.0,4671.0,1.0
575,-3.307,0.249,2.433,-20.173,0.283,7.309,15.967,-1.532,-0.098,0.794,-0.488,0.244,1.251,0.031,80.0,4672.0,1.0
576,-0.741,0.149,4.074,-15.081,-1.1,5.751,13.946,-1.47,-0.097,0.795,-0.486,0.214,1.221,0.092,80.0,4673.0,1.0
577,1.608,0.223,5.91,-7.927,-1.733,3.859,12.004,-0.479,-0.097,0.795,-0.484,0.183,1.282,0.153,80.0,4674.0,1.0
578,2.266,-0.179,6.37,-3.307,-2.056,2.339,10.348,0.115,-0.096,0.795,-0.485,0.153,1.282,0.214,80.0,4675.0,1.0
579,0.978,-1.356,4.544,-4.387,-2.917,1.347,8.414,-1.332,-0.094,0.794,-0.481,0.153,1.282,0.214,80.0,4676.0,1.0
580,-1.525,-2.943,0.964,-9.856,-4.547,0.792,5.877,-4.687,-0.093,0.796,-0.485,0.214,1.251,0.244,80.0,4677.0,1.0
581,-4.528,-4.332,-3.068,-15.926,-6.428,0.469,3.174,-8.098,-0.094,0.796,-0.483,0.275,1.343,0.275,80.0,4678.0,1.0
582,-7.611,-5.267,-6.627,-20.341,-8.058,-0.054,0.999,-10.086,-0.093,0.796,-0.485,0.214,1.495,0.366,80.0,4679.0,1.0
583,-10.34,-5.914,-9.452,-23.341,-9.417,-1.234,-0.371,-10.674,-0.094,0.796,-0.483,0.244,1.373,0.397,80.0,4680.0,1.0
584,-12.261,-6.503,-11.462,-25.684,-10.696,-3.032,-1.149,-10.637,-0.094,0.796,-0.484,0.305,1.434,0.427,80.0,4681.0,1.0
585,-13.126,-7.088,-12.477,-27.238,-11.875,-4.785,-1.631,-10.585,-0.094,0.795,-0.483,0.275,1.373,0.366,80.0,4682.0,1.0
586,-12.899,-7.621,-12.446,-27.412,-12.653,-5.762,-1.866,-10.668,-0.094,0.794,-0.485,0.275,1.312,0.397,80.0,4683.0,1.0
587,-11.725,-8.141,-11.696,-26.085,-12.749,-5.864,-1.75,-10.611,-0.094,0.795,-0.482,0.305,1.434,0.305,80.0,4684.0,1.0
588,-10.095,-8.793,-10.814,-23.844,-12.232,-5.672,-1.314,-10.044,-0.094,0.794,-0.479,0.397,1.373,0.336,80.0,4685.0,1.0
589,-8.751,-9.595,-10.245,-21.295,-11.469,-5.752,-0.786,-8.916,-0.092,0.792,-0.48,0.427,1.312,0.366,80.0,4686.0,1.0
590,-8.151,-10.18,-10.041,-18.477,-10.788,-6.078,-0.472,-7.607,-0.092,0.79,-0.484,0.305,1.312,0.244,80.0,4687.0,1.0
591,-8.16,-9.957,-10.013,-15.367,-10.273,-6.158,-0.581,-6.562,-0.092,0.789,-0.482,0.458,1.373,0.214,80.0,4688.0,1.0
592,-8.454,-8.637,-10.049,-12.847,-9.915,-5.625,-1.156,-6.053,-0.092,0.787,-0.481,0.58,1.434,0.214,80.0,4689.0,1.0
593,-8.92,-6.589,-10.178,-12.496,-9.917,-4.74,-2.258,-6.473,-0.094,0.789,-0.483,0.702,1.434,0.122,80.0,4690.0,1.0
594,-9.301,-4.589,-10.291,-14.873,-10.544,-4.303,-3.994,-8.137,-0.096,0.79,-0.482,0.732,1.495,0.092,80.0,4691.0,1.0
595,-8.79,-3.215,-9.97,-18.526,-11.638,-4.945,-6.216,-10.624,-0.094,0.789,-0.48,0.793,1.434,0.092,80.0,4692.0,1.0
596,-6.638,-2.556,-8.857,-21.466,-12.701,-6.574,-8.495,-13.18,-0.093,0.789,-0.483,0.946,1.434,-0.092,80.0,4693.0,1.0
597,-3.094,-2.356,-7.042,-22.721,-13.327,-8.453,-10.325,-15.324,-0.091,0.789,-0.483,1.038,1.312,-0.092,80.0,4694.0,1.0
598,0.783,-2.241,-4.856,-21.633,-13.215,-9.679,-11.138,-16.366,-0.092,0.789,-0.484,1.129,1.373,-0.153,80.0,4695.0,1.0
599,3.894,-2.012,-2.702,-17.736,-12.23,-9.83,-10.511,-15.389,-0.093,0.793,-0.485,1.129,1.556,-0.183,80.0,4696.0,1.0
600,5.327,-1.866,-1.296,-12.4,-10.809,-9.34,-8.636,-12.362,-0.093,0.798,-0.486,1.282,1.465,-0.244,80.0,4697.0,1.0
601,4.393,-2.324,-1.477,-8.515,-9.854,-9.104,-6.299,-8.509,-0.095,0.798,-0.484,1.343,1.404,-0.336,80.0,4698.0,1.0
602,1.082,-3.908,-3.49,-7.846,-10.027,-9.747,-4.335,-5.283,-0.096,0.797,-0.483,1.221,1.251,-0.336,80.0,4699.0,1.0
603,-3.382,-6.584,-6.531,-9.666,-11.177,-11.223,-3.123,-3.235,-0.097,0.8,-0.484,1.251,1.312,-0.336,80.0,4700.0,1.0
604,-6.91,-9.467,-9.041,-11.753,-12.42,-12.936,-2.519,-1.863,-0.095,0.804,-0.482,1.221,1.221,-0.275,80.0,4701.0,1.0
605,-8.164,-11.424,-9.817,-12.317,-12.827,-14.341,-2.2,-0.353,-0.094,0.804,-0.485,1.099,1.251,-0.275,80.0,4702.0,1.0
606,-7.489,-11.818,-8.826,-11.12,-11.962,-15.274,-1.889,1.78,-0.094,0.801,-0.483,1.038,1.282,-0.366,80.0,4703.0,1.0
607,-5.81,-10.403,-6.644,-8.639,-9.717,-15.565,-1.195,4.611,-0.095,0.802,-0.485,0.854,1.19,-0.458,80.0,4704.0,1.0
608,-3.593,-7.22,-3.697,-4.816,-6.256,-14.847,0.198,7.749,-0.094,0.802,-0.48,0.793,1.282,-0.305,80.0,4705.0,1.0
609,-1.502,-3.259,-0.713,-0.078,-2.574,-13.298,1.81,10.119,-0.095,0.803,-0.48,0.671,1.251,-0.336,80.0,4706.0,1.0
610,-0.782,-0.517,0.909,2.886,-0.516,-12.068,2.257,10.02,-0.095,0.802,-0.483,0.671,1.251,-0.305,80.0,4707.0,1.0
611,-1.84,-0.363,0.361,1.077,-1.258,-12.193,0.448,6.305,-0.097,0.802,-0.485,0.61,1.221,-0.244,80.0,4708.0,1.0
612,-3.208,-2.039,-1.24,-4.641,-3.839,-13.254,-3.127,0.091,-0.094,0.801,-0.484,0.58,1.221,-0.305,80.0,4709.0,1.0
613,-2.851,-3.382,-1.658,-9.471,-5.898,-13.711,-6.629,-5.43,-0.096,0.8,-0.483,0.61,1.19,-0.153,80.0,4710.0,1.0
614,-0.203,-2.856,0.369,-8.989,-5.835,-12.52,-8.361,-7.416,-0.095,0.8,-0.485,0.458,1.16,-0.092,80.0,4711.0,1.0
615,3.46,-0.674,4.081,-2.641,-3.982,-10.183,-8.028,-5.539,-0.095,0.8,-0.482,0.458,1.038,-0.061,80.0,4712.0,1.0
616,6.14,1.699,7.357,5.945,-2.036,-8.257,-6.817,-2.106,-0.094,0.801,-0.482,0.366,1.038,-0.031,80.0,4713.0,1.0
617,6.351,2.789,8.251,11.482,-1.593,-8.005,-6.325,-0.203,-0.095,0.801,-0.479,0.275,1.068,0.0,80.0,4714.0,1.0
618,3.888,2.092,6.344,11.072,-2.98,-9.545,-7.354,-1.276,-0.094,0.799,-0.48,0.336,0.977,0.061,80.0,4715.0,1.0
619,-0.088,0.154,2.848,6.182,-5.255,-12.138,-9.622,-4.361,-0.096,0.798,-0.478,0.214,0.916,0.031,80.0,4716.0,1.0
620,-3.934,-2.093,-0.589,0.515,-7.164,-14.898,-12.283,-7.437,-0.096,0.795,-0.479,0.214,0.854,0.031,80.0,4717.0,1.0
621,-6.766,-3.996,-3.041,-3.194,-7.971,-17.12,-14.409,-8.963,-0.095,0.797,-0.479,0.275,0.824,0.092,80.0,4718.0,1.0
622,-8.914,-5.48,-4.596,-4.754,-7.807,-18.464,-15.366,-8.729,-0.094,0.798,-0.481,0.275,0.854,0.031,80.0,4719.0,1.0
623,-11.095,-6.871,-5.903,-6.04,-7.519,-19.126,-15.129,-7.865,-0.094,0.795,-0.482,0.305,0.824,-0.031,80.0,4720.0,1.0
624,-13.258,-8.338,-7.379,-8.798,-7.944,-19.681,-14.297,-7.855,-0.094,0.795,-0.48,0.366,0.854,0.0,80.0,4721.0,1.0
625,-14.524,-9.617,-8.801,-12.833,-9.224,-20.648,-13.745,-9.483,-0.094,0.796,-0.48,0.244,0.885,0.031,80.0,4722.0,1.0
626,-14.026,-10.165,-9.472,-15.778,-10.633,-21.971,-14.004,-12.195,-0.095,0.797,-0.482,0.305,0.854,-0.031,80.0,4723.0,1.0
627,-11.558,-9.608,-8.75,-14.429,-11.004,-22.925,-14.892,-14.218,-0.094,0.797,-0.479,0.305,0.824,-0.061,80.0,4724.0,1.0
628,-7.803,-8.293,-6.819,-7.809,-9.823,-22.882,-16.003,-14.162,-0.093,0.798,-0.479,0.397,0.793,-0.031,80.0,4725.0,1.0
629,-4.212,-7.311,-4.96,0.652,-8.004,-22.087,-17.257,-12.69,-0.093,0.799,-0.481,0.336,0.824,-0.031,80.0,4726.0,1.0
630,-2.425,-7.735,-4.749,5.165,-7.311,-21.471,-18.739,-11.962,-0.092,0.798,-0.479,0.366,0.854,-0.122,80.0,4727.0,1.0
631,-3.219,-9.717,-6.793,2.356,-8.83,-21.784,-20.203,-13.339,-0.094,0.796,-0.479,0.488,0.854,-0.153,80.0,4728.0,1.0
632,-5.496,-12.039,-9.877,-5.352,-11.775,-22.726,-20.8,-15.82,-0.094,0.799,-0.482,0.519,0.946,-0.183,80.0,4729.0,1.0
633,-6.823,-12.808,-11.561,-11.189,-13.952,-23.025,-19.583,-16.896,-0.094,0.796,-0.478,0.549,0.916,-0.214,80.0,4730.0,1.0
634,-5.831,-11.27,-10.478,-10.557,-13.951,-21.821,-16.773,-15.295,-0.091,0.796,-0.479,0.519,1.007,-0.183,80.0,4731.0,1.0
635,-3.472,-8.612,-7.66,-5.321,-12.396,-19.592,-13.957,-12.275,-0.091,0.796,-0.479,0.519,1.068,-0.244,80.0,4732.0,1.0
636,-1.345,-6.517,-5.018,-0.294,-10.614,-17.311,-12.462,-9.882,-0.091,0.795,-0.482,0.61,1.038,-0.183,80.0,4733.0,1.0
637,-0.01,-5.613,-3.461,1.953,-9.154,-15.346,-12.226,-9.114,-0.092,0.795,-0.48,0.702,1.16,-0.214,80.0,4734.0,1.0
638,0.652,-5.541,-2.91,1.777,-7.921,-13.438,-12.418,-9.703,-0.093,0.796,-0.48,0.732,1.221,-0.305,80.0,4735.0,1.0
639,0.605,-5.701,-3.064,0.514,-6.793,-11.252,-12.482,-10.637,-0.094,0.796,-0.48,0.732,1.19,-0.275,80.0,4736.0,1.0
640,-0.093,-5.509,-3.533,-0.958,-5.716,-8.753,-12.491,-10.975,-0.094,0.797,-0.482,0.793,1.282,-0.366,80.0,4737.0,1.0
641,-0.723,-4.4,-3.545,-1.98,-4.471,-6.219,-12.75,-10.232,-0.094,0.796,-0.479,0.916,1.282,-0.336,80.0,4738.0,1.0
642,-0.309,-2.124,-2.154,-1.265,-2.649,-4.024,-13.272,-8.075,-0.094,0.796,-0.481,0.763,1.312,-0.305,80.0,4739.0,1.0
643,1.372,0.906,0.925,2.171,-0.085,-2.467,-13.743,-4.43,-0.093,0.794,-0.479,0.763,1.343,-0.244,80.0,4740.0,1.0
644,3.601,3.802,4.826,7.115,2.795,-1.659,-13.862,-0.021,-0.093,0.795,-0.482,0.793,1.282,-0.275,80.0,4741.0,1.0
645,5.426,5.772,8.024,10.563,5.148,-1.533,-13.591,3.802,-0.094,0.798,-0.48,0.916,1.282,-0.305,80.0,4742.0,1.0
646,6.175,6.481,9.332,10.381,6.166,-1.949,-13.206,5.856,-0.095,0.795,-0.479,0.977,1.343,-0.244,80.0,4743.0,1.0
647,5.75,6.136,8.72,7.456,5.597,-2.699,-13.109,5.856,-0.097,0.796,-0.48,1.038,1.404,-0.153,80.0,4744.0,1.0
648,4.854,5.427,7.344,5.456,4.062,-3.507,-13.511,4.778,-0.096,0.796,-0.483,0.977,1.404,-0.305,80.0,4745.0,1.0
649,4.425,5.063,6.419,7.408,2.507,-4.263,-14.39,4.179,-0.096,0.795,-0.482,1.038,1.373,-0.275,80.0,4746.0,1.0
650,4.424,5.104,5.902,11.739,1.147,-5.216,-15.74,4.581,-0.094,0.797,-0.482,1.16,1.404,-0.305,80.0,4747.0,1.0
651,3.74,4.877,4.679,13.269,-0.622,-6.702,-17.52,4.853,-0.095,0.798,-0.482,1.099,1.373,-0.244,80.0,4748.0,1.0
652,1.69,3.794,2.164,9.169,-3.071,-8.661,-19.329,3.755,-0.092,0.798,-0.48,1.099,1.373,-0.214,80.0,4749.0,1.0
653,-0.878,2.04,-0.774,2.318,-5.422,-10.575,-20.495,1.55,-0.094,0.799,-0.48,1.19,1.282,-0.244,80.0,4750.0,1.0
654,-2.414,0.276,-2.664,-2.194,-6.625,-11.917,-20.689,-0.547,-0.093,0.799,-0.481,1.221,1.404,-0.275,80.0,4751.0,1.0
655,-2.223,-1.112,-2.796,-1.951,-6.546,-12.627,-20.316,-1.87,-0.094,0.799,-0.481,1.251,1.343,-0.275,80.0,4752.0,1.0
656,-0.865,-2.224,-1.632,1.964,-6.099,-13.152,-20.149,-2.651,-0.095,0.799,-0.481,1.19,1.404,-0.183,80.0,4753.0,1.0
657,0.644,-3.333,-0.291,6.955,-6.38,-14.053,-20.603,-3.299,-0.095,0.799,-0.481,1.099,1.343,-0.153,80.0,4754.0,1.0
658,1.597,-4.596,0.222,11.043,-7.713,-15.528,-21.392,-3.701,-0.097,0.799,-0.478,1.129,1.343,-0.183,80.0,4755.0,1.0
659,1.636,-5.975,-0.424,13.983,-9.415,-17.152,-21.725,-3.254,-0.094,0.799,-0.48,1.068,1.404,-0.122,80.0,4756.0,1.0
660,0.536,-7.301,-1.998,16.303,-10.546,-18.189,-20.943,-1.787,-0.095,0.8,-0.479,1.099,1.434,-0.061,80.0,4757.0,1.0
661,-1.693,-8.501,-4.307,17.009,-10.964,-18.409,-19.242,-0.425,-0.094,0.798,-0.479,1.007,1.434,-0.092,80.0,4758.0,1.0
662,-4.522,-9.633,-7.261,13.966,-11.235,-18.299,-17.498,-0.615,-0.092,0.795,-0.481,1.038,1.465,-0.031,80.0,4759.0,1.0
663,-6.96,-10.602,-10.242,7.341,-11.508,-18.324,-16.257,-2.1,-0.091,0.798,-0.485,0.977,1.343,0.0,80.0,4760.0,1.0
664,-8.08,-11.134,-12.089,0.509,-11.261,-18.48,-15.472,-3.15,-0.091,0.797,-0.483,1.068,1.495,-0.092,80.0,4761.0,1.0
665,-7.37,-10.974,-11.967,-3.223,-10.237,-18.624,-15.168,-3.031,-0.091,0.796,-0.482,1.099,1.526,-0.061,80.0,4762.0,1.0
666,-4.869,-10.062,-10.064,-3.355,-8.998,-18.798,-15.708,-3.014,-0.093,0.792,-0.483,1.099,1.465,-0.061,80.0,4763.0,1.0
667,-1.467,-8.724,-7.521,-1.581,-8.43,-19.111,-17.333,-4.668,-0.09,0.792,-0.481,1.099,1.617,-0.061,80.0,4764.0,1.0
668,1.347,-7.559,-5.644,0.414,-8.919,-19.413,-19.691,-8.001,-0.09,0.792,-0.479,1.19,1.648,-0.061,80.0,4765.0,1.0
669,2.697,-6.907,-4.95,2.351,-9.986,-19.178,-21.883,-11.53,-0.092,0.792,-0.48,1.282,1.617,-0.153,80.0,4766.0,1.0
670,3.055,-6.57,-4.934,5.082,-10.638,-17.796,-22.963,-13.614,-0.093,0.792,-0.477,1.434,1.709,-0.092,80.0,4767.0,1.0
671,3.336,-6.177,-4.836,8.734,-10.153,-15.045,-22.492,-13.511,-0.096,0.794,-0.481,1.465,1.556,-0.214,80.0,4768.0,1.0
672,3.583,-5.673,-4.583,11.197,-8.735,-11.478,-20.856,-11.772,-0.095,0.794,-0.479,1.556,1.556,-0.153,80.0,4769.0,1.0
673,3.168,-5.267,-4.706,9.831,-7.286,-8.282,-18.977,-9.791,-0.094,0.794,-0.48,1.526,1.465,-0.275,80.0,4770.0,1.0
674,2.073,-4.988,-5.396,4.731,-6.396,-6.505,-17.477,-8.467,-0.093,0.794,-0.481,1.648,1.465,-0.305,80.0,4771.0,1.0
675,1.083,-4.712,-6.183,-1.318,-5.921,-6.453,-16.277,-7.524,-0.093,0.797,-0.482,1.648,1.434,-0.305,80.0,4772.0,1.0
676,0.778,-4.484,-6.422,-5.565,-5.421,-7.614,-14.934,-6.092,-0.095,0.799,-0.482,1.526,1.495,-0.397,80.0,4773.0,1.0
677,1.271,-4.243,-5.536,-6.331,-4.444,-8.919,-13.096,-3.489,-0.093,0.797,-0.483,1.526,1.434,-0.366,80.0,4774.0,1.0
678,2.654,-3.595,-3.176,-2.745,-2.693,-9.456,-10.892,0.222,-0.093,0.798,-0.482,1.556,1.495,-0.336,80.0,4775.0,1.0
679,4.727,-2.418,0.141,4.241,-0.554,-9.254,-9.133,3.736,-0.095,0.798,-0.484,1.434,1.404,-0.336,80.0,4776.0,1.0
680,6.512,-1.279,2.977,11.492,0.844,-9.121,-8.788,5.054,-0.094,0.799,-0.484,1.404,1.373,-0.397,80.0,4777.0,1.0
681,6.795,-0.891,4.053,15.981,0.639,-9.663,-10.027,3.231,-0.092,0.799,-0.482,1.282,1.495,-0.397,80.0,4778.0,1.0
682,5.19,-1.38,3.148,16.564,-0.93,-10.773,-12.015,-0.719,-0.092,0.8,-0.485,1.221,1.495,-0.427,80.0,4779.0,1.0
683,2.578,-2.14,1.083,13.714,-2.765,-11.828,-13.568,-4.749,-0.093,0.8,-0.483,1.312,1.373,-0.366,80.0,4780.0,1.0
684,0.503,-2.313,-0.766,9.204,-3.692,-12.072,-13.846,-7.219,-0.094,0.801,-0.482,1.282,1.434,-0.366,80.0,4781.0,1.0
685,0.034,-1.498,-1.237,5.438,-3.155,-11.098,-12.74,-7.672,-0.093,0.798,-0.484,1.282,1.465,-0.397,80.0,4782.0,1.0
686,1.132,-0.031,-0.165,3.579,-1.514,-9.202,-10.868,-6.801,-0.092,0.796,-0.484,1.282,1.465,-0.366,80.0,4783.0,1.0
687,2.977,1.426,1.594,2.727,0.299,-7.14,-9.119,-5.821,-0.094,0.796,-0.484,1.221,1.404,-0.183,80.0,4784.0,1.0
688,4.719,2.524,3.069,1.697,1.553,-5.463,-8.049,-5.54,-0.095,0.795,-0.484,1.16,1.465,-0.183,80.0,4785.0,1.0
689,5.8,3.321,3.857,0.551,2.132,-4.295,-7.637,-5.894,-0.093,0.797,-0.48,1.19,1.343,-0.031,80.0,4786.0,1.0
690,5.908,3.836,3.941,-0.114,2.288,-3.618,-7.53,-6.324,-0.094,0.798,-0.485,1.16,1.282,-0.061,80.0,4787.0,1.0
691,5.076,3.937,3.427,0.184,2.397,-3.337,-7.3,-6.221,-0.094,0.797,-0.481,1.068,1.282,-0.092,80.0,4788.0,1.0
692,3.553,3.583,2.451,1.701,2.779,-3.167,-6.649,-5.295,-0.094,0.796,-0.487,1.068,1.16,-0.061,80.0,4789.0,1.0
693,1.436,2.859,1.018,3.724,3.435,-2.783,-5.59,-3.979,-0.094,0.796,-0.486,1.068,1.129,-0.122,80.0,4790.0,1.0
694,-0.96,2.083,-0.617,5.028,4.292,-1.975,-4.271,-2.996,-0.094,0.797,-0.486,0.977,1.129,-0.153,80.0,4791.0,1.0
695,-2.544,1.933,-1.478,5.731,5.65,-0.678,-2.745,-2.402,-0.093,0.796,-0.486,0.977,1.099,-0.092,80.0,4792.0,1.0
696,-2.265,2.91,-0.635,7.001,7.706,0.777,-1.312,-1.807,-0.094,0.796,-0.485,0.977,1.007,-0.031,80.0,4793.0,1.0
697,-0.477,4.56,1.511,8.701,9.784,1.646,-0.701,-1.337,-0.093,0.797,-0.482,1.038,0.977,0.031,80.0,4794.0,1.0
698,1.308,5.747,3.329,8.871,10.672,1.448,-1.387,-1.587,-0.093,0.795,-0.479,1.068,0.916,-0.061,80.0,4795.0,1.0
699,2.07,5.812,3.458,5.952,9.776,0.587,-2.96,-2.721,-0.093,0.794,-0.48,1.099,0.916,-0.061,80.0,4796.0,1.0
700,2.098,5.224,1.957,0.881,7.711,0.093,-4.415,-4.006,-0.094,0.794,-0.484,1.099,1.007,-0.092,80.0,4797.0,1.0
701,2.203,5.007,-0.012,-3.575,5.709,0.738,-5.024,-4.355,-0.093,0.794,-0.485,1.099,0.977,-0.061,80.0,4798.0,1.0
702,2.694,5.65,-1.374,-5.489,4.576,2.423,-4.873,-3.484,-0.094,0.791,-0.483,1.129,0.885,-0.153,80.0,4799.0,1.0
703,3.37,6.727,-1.775,-5.034,4.395,4.403,-4.512,-2.267,-0.094,0.794,-0.482,1.129,0.916,-0.183,80.0,4800.0,1.0
704,4.14,7.594,-1.235,-3.129,5.056,6.114,-4.138,-1.578,-0.092,0.795,-0.479,1.251,0.824,-0.183,80.0,4801.0,1.0
705,5.077,8.083,0.164,-0.3,6.549,7.513,-3.438,-1.233,-0.093,0.794,-0.485,1.221,0.916,-0.214,80.0,4802.0,1.0
706,6.078,8.481,2.152,2.857,8.67,8.698,-2.214,-0.566,-0.094,0.795,-0.483,1.282,0.885,-0.244,80.0,4803.0,1.0
707,7.114,9.259,4.352,5.473,10.914,9.627,-0.751,0.36,-0.093,0.797,-0.482,1.312,0.854,-0.244,80.0,4804.0,1.0
708,8.409,10.767,6.484,6.813,12.739,10.237,0.5,0.71,-0.094,0.795,-0.483,1.373,0.763,-0.336,80.0,4805.0,1.0
709,9.966,12.829,8.362,6.588,13.812,10.54,1.288,0.006,-0.094,0.794,-0.483,1.312,0.763,-0.336,80.0,4806.0,1.0
710,11.39,14.743,9.915,5.267,14.099,10.594,1.578,-1.202,-0.094,0.794,-0.483,1.495,0.671,-0.366,80.0,4807.0,1.0
711,12.361,15.791,11.136,3.569,13.701,10.352,1.291,-2.118,-0.094,0.796,-0.483,1.434,0.793,-0.336,80.0,4808.0,1.0
712,12.854,15.65,11.86,1.389,12.59,9.476,0.13,-2.732,-0.095,0.794,-0.485,1.434,0.702,-0.366,80.0,4809.0,1.0
713,12.947,14.483,11.936,-1.527,10.809,7.595,-1.991,-3.432,-0.095,0.795,-0.484,1.434,0.671,-0.336,80.0,4810.0,1.0
714,12.788,12.731,11.631,-4.005,8.837,4.867,-4.475,-3.978,-0.095,0.795,-0.483,1.495,0.702,-0.214,80.0,4811.0,1.0
715,12.639,10.648,11.402,-4.287,7.253,1.978,-6.442,-3.786,-0.096,0.794,-0.481,1.373,0.641,-0.366,80.0,4812.0,1.0
716,12.649,8.192,11.313,-2.152,6.215,-0.399,-7.409,-2.802,-0.095,0.795,-0.481,1.282,0.61,-0.397,80.0,4813.0,1.0
717,12.398,5.252,10.846,0.905,5.522,-2.07,-7.427,-1.353,-0.097,0.794,-0.485,1.373,0.61,-0.275,80.0,4814.0,1.0
718,11.001,1.87,9.324,3.334,4.997,-3.312,-6.866,0.496,-0.096,0.795,-0.485,1.373,0.58,-0.183,80.0,4815.0,1.0
719,8.301,-1.389,6.814,5.144,4.809,-4.329,-6.125,2.867,-0.096,0.794,-0.485,1.343,0.519,-0.183,80.0,4816.0,1.0
720,5.433,-3.54,4.27,7.04,5.149,-4.981,-5.584,5.075,-0.097,0.798,-0.483,1.373,0.549,-0.122,80.0,4817.0,1.0
721,3.615,-4.086,2.473,8.143,5.604,-5.123,-5.665,5.379,-0.095,0.796,-0.484,1.343,0.549,-0.092,80.0,4818.0,1.0
722,3.007,-3.453,1.434,6.716,5.432,-4.908,-6.627,2.718,-0.097,0.796,-0.485,1.343,0.458,-0.092,80.0,4819.0,1.0
723,2.941,-2.542,0.718,2.765,4.269,-4.83,-8.531,-1.956,-0.094,0.796,-0.484,1.251,0.458,-0.122,80.0,4820.0,1.0
724,2.655,-2.171,-0.193,-1.938,2.291,-5.504,-11.301,-6.529,-0.093,0.794,-0.483,1.251,0.549,-0.153,80.0,4821.0,1.0
725,1.728,-2.697,-1.526,-5.504,0.145,-6.982,-14.342,-9.11,-0.094,0.795,-0.482,1.16,0.519,-0.092,80.0,4822.0,1.0
726,0.147,-3.781,-2.904,-6.683,-1.215,-8.352,-16.422,-8.822,-0.095,0.793,-0.483,1.068,0.427,-0.061,80.0,4823.0,1.0
727,-1.781,-4.623,-3.674,-5.426,-1.088,-8.35,-16.494,-6.211,-0.093,0.794,-0.483,1.129,0.488,0.0,80.0,4824.0,1.0
728,-3.51,-4.559,-3.549,-3.185,0.46,-6.481,-14.59,-2.929,-0.093,0.794,-0.481,1.038,0.519,0.0,80.0,4825.0,1.0
729,-4.431,-3.456,-2.753,-1.646,2.643,-3.521,-11.866,-0.604,-0.093,0.797,-0.482,1.099,0.58,0.092,80.0,4826.0,1.0
730,-4.179,-1.658,-1.647,-1.128,4.508,-0.868,-9.738,0.313,-0.093,0.796,-0.484,0.946,0.58,0.092,80.0,4827.0,1.0
731,-2.738,0.447,-0.357,-0.48,5.582,0.698,-8.771,0.656,-0.093,0.795,-0.484,1.007,0.549,-0.031,80.0,4828.0,1.0
732,-0.337,2.746,1.137,1.327,6.072,1.557,-8.419,1.438,-0.092,0.795,-0.484,0.946,0.58,0.031,80.0,4829.0,1.0
733,2.411,5.063,2.551,3.667,6.412,2.562,-7.776,2.736,-0.093,0.794,-0.485,0.946,0.519,0.0,80.0,4830.0,1.0
734,4.367,6.76,3.196,4.81,6.766,4.076,-6.385,3.626,-0.092,0.794,-0.483,0.885,0.549,0.092,80.0,4831.0,1.0
735,4.231,6.988,2.34,3.297,6.875,5.657,-4.542,2.813,-0.094,0.795,-0.483,0.854,0.549,0.031,80.0,4832.0,1.0
736,1.392,5.259,-0.327,-1.361,6.35,6.505,-3.091,-0.328,-0.093,0.795,-0.484,0.824,0.732,0.031,80.0,4833.0,1.0
737,-3.349,1.936,-4.145,-7.808,5.276,6.312,-2.658,-4.819,-0.092,0.795,-0.486,0.793,0.854,-0.122,80.0,4834.0,1.0
738,-8.061,-1.744,-7.488,-12.724,4.422,5.688,-3.017,-8.394,-0.091,0.796,-0.485,0.763,0.885,-0.122,80.0,4835.0,1.0
739,-10.955,-4.358,-8.798,-12.862,4.567,5.639,-3.39,-9.128,-0.092,0.797,-0.484,0.61,0.885,-0.214,80.0,4836.0,1.0
740,-11.433,-5.227,-7.824,-7.951,5.646,6.594,-3.302,-6.978,-0.093,0.796,-0.485,0.702,0.977,-0.214,80.0,4837.0,1.0
741,-10.119,-4.746,-5.792,-1.458,6.67,8.002,-2.94,-3.743,-0.094,0.796,-0.487,0.641,0.946,-0.244,80.0,4838.0,1.0
742,-8.244,-3.809,-4.29,2.492,6.589,8.939,-2.679,-1.407,-0.092,0.795,-0.485,0.58,1.007,-0.397,80.0,4839.0,1.0
743,-6.973,-3.086,-4.115,2.815,5.102,8.947,-2.642,-0.639,-0.094,0.796,-0.484,0.61,1.099,-0.397,80.0,4840.0,1.0
744,-6.885,-2.913,-5.191,0.93,2.573,8.113,-2.919,-1.066,-0.093,0.794,-0.482,0.702,1.038,-0.458,80.0,4841.0,1.0
745,-7.652,-3.373,-6.963,-2.17,-0.442,6.721,-3.803,-2.506,-0.094,0.796,-0.486,0.641,1.251,-0.366,80.0,4842.0,1.0
746,-8.321,-4.065,-8.522,-6.022,-3.234,5.145,-5.394,-4.969,-0.094,0.797,-0.487,0.671,1.312,-0.397,80.0,4843.0,1.0
747,-8.31,-4.324,-8.973,-9.161,-4.944,3.794,-7.205,-7.704,-0.095,0.796,-0.484,0.549,1.19,-0.397,80.0,4844.0,1.0
748,-8.064,-4.037,-8.266,-10.342,-5.113,2.807,-8.508,-9.562,-0.097,0.798,-0.483,0.519,1.343,-0.458,80.0,4845.0,1.0
749,-8.355,-3.774,-7.218,-10.264,-4.002,2.066,-8.783,-10.048,-0.096,0.798,-0.485,0.549,1.373,-0.458,80.0,4846.0,1.0
750,-9.085,-3.862,-6.342,-9.799,-2.047,1.62,-7.774,-9.054,-0.096,0.795,-0.483,0.549,1.282,-0.488,80.0,4847.0,1.0
751,-9.332,-3.897,-5.262,-8.169,0.5,1.684,-5.689,-6.352,-0.098,0.795,-0.483,0.519,1.282,-0.519,80.0,4848.0,1.0
752,-8.439,-3.393,-3.582,-4.825,3.097,2.161,-3.466,-2.408,-0.098,0.793,-0.484,0.488,1.312,-0.427,80.0,4849.0,1.0
753,-6.499,-2.368,-1.64,-1.377,4.722,2.554,-2.34,1.044,-0.098,0.794,-0.481,0.58,1.19,-0.397,80.0,4850.0,1.0
754,-4.146,-1.246,-0.219,-0.211,4.528,2.342,-2.947,2.128,-0.095,0.795,-0.479,0.58,1.251,-0.488,80.0,4851.0,1.0
755,-2.558,-0.66,-0.15,-2.613,2.351,1.221,-5.104,0.223,-0.095,0.795,-0.478,0.58,1.282,-0.519,80.0,4852.0,1.0
756,-2.988,-1.107,-1.882,-8.159,-1.232,-0.692,-8.131,-3.768,-0.098,0.799,-0.481,0.549,1.221,-0.488,80.0,4853.0,1.0
757,-5.529,-2.429,-4.872,-14.477,-4.955,-2.575,-10.961,-7.939,-0.097,0.796,-0.481,0.549,1.19,-0.427,80.0,4854.0,1.0
758,-9.027,-4.078,-7.947,-18.721,-7.541,-3.316,-12.526,-10.696,-0.098,0.796,-0.484,0.519,1.221,-0.366,80.0,4855.0,1.0
759,-12.441,-5.84,-10.469,-19.983,-8.661,-2.462,-12.438,-11.875,-0.097,0.796,-0.482,0.519,1.129,-0.244,80.0,4856.0,1.0
760,-15.475,-7.73,-12.475,-19.19,-8.821,-0.489,-11.088,-12.118,-0.097,0.797,-0.483,0.58,1.19,-0.275,80.0,4857.0,1.0
761,-17.904,-9.414,-13.969,-17.55,-8.594,1.683,-9.258,-11.987,-0.095,0.797,-0.481,0.549,1.099,-0.275,80.0,4858.0,1.0
762,-19.114,-10.17,-14.653,-15.997,-8.271,3.262,-7.775,-12.11,-0.095,0.796,-0.483,0.61,1.038,-0.244,80.0,4859.0,1.0
763,-18.651,-9.418,-14.205,-14.971,-7.809,4.022,-7.083,-12.855,-0.097,0.794,-0.482,0.61,1.099,-0.214,80.0,4860.0,1.0
764,-16.794,-7.311,-12.583,-14.06,-6.906,4.254,-7.047,-13.629,-0.096,0.795,-0.482,0.641,1.099,-0.214,80.0,4861.0,1.0
765,-14.111,-4.708,-10.007,-11.925,-5.299,4.176,-7.275,-13.246,-0.099,0.796,-0.481,0.641,1.16,-0.153,80.0,4862.0,1.0
766,-10.812,-2.474,-6.875,-7.306,-3.151,3.598,-7.553,-11.235,-0.098,0.797,-0.479,0.549,1.038,-0.031,80.0,4863.0,1.0
767,-7.273,-1.079,-4.026,-1.326,-1.273,2.229,-8.027,-8.607,-0.097,0.796,-0.481,0.641,0.977,-0.031,80.0,4864.0,1.0
768,-4.718,-0.75,-2.707,2.18,-0.734,0.135,-9.011,-6.955,-0.096,0.795,-0.481,0.641,1.038,-0.031,80.0,4865.0,1.0
769,-4.266,-1.34,-3.517,0.337,-1.856,-1.999,-10.452,-6.801,-0.096,0.795,-0.484,0.763,1.038,0.031,80.0,4866.0,1.0
770,-5.408,-1.973,-5.565,-5.657,-3.741,-3.035,-11.701,-7.352,-0.097,0.796,-0.482,0.732,1.007,0.0,80.0,4867.0,1.0
771,-6.503,-1.701,-7.27,-11.853,-5.118,-2.248,-12.014,-7.634,-0.099,0.796,-0.482,0.793,1.007,-0.031,80.0,4868.0,1.0
772,-6.667,-0.599,-7.792,-14.694,-5.496,-0.113,-11.302,-7.214,-0.097,0.796,-0.48,0.793,1.038,0.0,80.0,4869.0,1.0
773,-6.224,0.462,-7.239,-12.875,-5.255,2.114,-10.259,-6.073,-0.097,0.795,-0.483,0.763,1.007,0.031,80.0,4870.0,1.0
774,-5.661,0.866,-6.034,-7.79,-5.021,3.469,-9.744,-4.443,-0.095,0.797,-0.482,0.824,0.885,-0.031,80.0,4871.0,1.0
775,-5.245,0.502,-4.651,-2.309,-5.218,3.743,-10.062,-2.684,-0.096,0.796,-0.484,0.854,0.885,-0.092,80.0,4872.0,1.0
776,-5.391,-0.543,-3.615,1.31,-5.981,3.254,-10.821,-1.079,-0.095,0.797,-0.482,0.824,0.946,-0.122,80.0,4873.0,1.0
777,-6.437,-1.984,-3.287,2.041,-7.227,2.452,-11.47,-0.044,-0.094,0.796,-0.479,0.824,1.038,-0.092,80.0,4874.0,1.0
778,-8.035,-3.362,-3.669,-0.565,-8.72,1.583,-11.776,-0.286,-0.095,0.796,-0.479,0.854,1.099,-0.092,80.0,4875.0,1.0
779,-9.484,-4.422,-4.558,-6.203,-10.063,0.605,-11.746,-2.087,-0.096,0.795,-0.482,0.824,1.038,-0.153,80.0,4876.0,1.0
780,-10.65,-5.344,-5.821,-13.153,-10.874,-0.599,-11.425,-4.767,-0.096,0.796,-0.479,0.916,1.007,-0.153,80.0,4877.0,1.0
781,-11.925,-6.368,-7.35,-18.75,-10.974,-1.898,-10.891,-7.204,-0.097,0.798,-0.479,0.946,1.007,-0.122,80.0,4878.0,1.0
782,-13.253,-7.217,-8.724,-20.527,-10.171,-2.739,-10.114,-8.431,-0.097,0.795,-0.481,0.977,1.038,-0.122,80.0,4879.0,1.0
783,-13.952,-7.197,-9.326,-17.419,-8.195,-2.481,-8.909,-7.837,-0.094,0.795,-0.481,0.977,0.977,-0.153,80.0,4880.0,1.0
784,-13.77,-6.041,-9.06,-10.942,-5.207,-1.034,-7.251,-5.414,-0.096,0.797,-0.482,0.916,1.038,-0.244,80.0,4881.0,1.0
785,-13.525,-4.49,-8.675,-4.922,-2.091,0.901,-5.555,-1.934,-0.096,0.798,-0.481,0.916,1.007,-0.214,80.0,4882.0,1.0
786,-14.193,-3.722,-9.024,-2.886,0.13,2.328,-4.464,1.294,-0.097,0.797,-0.481,0.885,0.977,-0.153,80.0,4883.0,1.0
787,-15.71,-4.175,-10.006,-5.022,1.183,2.793,-4.227,3.405,-0.096,0.798,-0.48,0.946,1.007,-0.183,80.0,4884.0,1.0
788,-17.25,-5.283,-10.657,-8.456,1.54,2.606,-4.489,4.472,-0.095,0.798,-0.481,0.977,1.038,-0.122,80.0,4885.0,1.0
789,-18.496,-6.488,-10.486,-11.104,1.403,2.116,-4.987,4.483,-0.094,0.798,-0.48,0.916,1.068,-0.275,80.0,4886.0,1.0
790,-19.866,-7.834,-10.118,-13.692,0.371,1.194,-5.983,2.846,-0.095,0.798,-0.481,1.038,1.038,-0.183,80.0,4887.0,1.0
791,-21.584,-9.408,-10.399,-17.475,-1.689,-0.32,-7.693,-0.384,-0.094,0.797,-0.481,0.977,1.038,-0.244,80.0,4888.0,1.0
792,-23.227,-10.91,-11.458,-21.837,-4.143,-2.167,-9.743,-3.833,-0.093,0.796,-0.48,1.007,1.068,-0.275,80.0,4889.0,1.0
793,-24.088,-11.891,-12.683,-24.67,-6.09,-3.798,-11.338,-5.69,-0.095,0.797,-0.48,0.885,1.068,-0.305,80.0,4890.0,1.0
794,-23.438,-11.924,-13.096,-24.083,-6.946,-4.664,-11.712,-4.859,-0.095,0.798,-0.48,0.977,1.068,-0.336,80.0,4891.0,1.0
795,-20.768,-10.752,-11.809,-19.268,-6.593,-4.501,-10.541,-1.396,-0.095,0.798,-0.479,1.038,1.007,-0.214,80.0,4892.0,1.0
796,-16.474,-8.715,-8.713,-10.518,-5.454,-3.692,-8.272,3.701,-0.095,0.799,-0.481,1.16,1.007,-0.214,80.0,4893.0,1.0
797,-12.248,-6.972,-5.168,-0.458,-4.727,-3.362,-6.182,8.473,-0.096,0.798,-0.481,1.129,1.007,-0.244,80.0,4894.0,1.0
798,-10.125,-6.954,-3.573,5.433,-6.003,-4.668,-5.786,10.204,-0.096,0.799,-0.481,1.068,1.068,-0.244,80.0,4895.0,1.0
799,-10.67,-9.204,-5.46,3.04,-9.802,-7.729,-7.656,7.208,-0.096,0.801,-0.482,1.068,1.007,-0.244,80.0,4896.0,1.0
800,-12.556,-12.915,-10.17,-6.121,-14.802,-11.492,-10.836,0.676,-0.096,0.798,-0.484,1.068,0.946,-0.214,80.0,4897.0,1.0
801,-14.123,-16.73,-15.646,-16.551,-18.851,-14.65,-13.522,-5.817,-0.095,0.797,-0.485,1.068,0.946,-0.275,80.0,4898.0,1.0
802,-14.563,-19.604,-19.815,-22.89,-20.333,-16.363,-14.193,-8.714,-0.098,0.799,-0.482,1.068,0.977,-0.122,80.0,4899.0,1.0
803,-13.609,-20.937,-21.32,-22.567,-18.847,-16.296,-12.364,-7.015,-0.098,0.799,-0.48,1.038,0.977,-0.214,80.0,4900.0,1.0
804,-11.272,-20.521,-19.92,-16.932,-15.235,-14.481,-8.664,-2.748,-0.098,0.8,-0.479,1.007,1.068,-0.122,80.0,4901.0,1.0
805,-8.268,-18.66,-16.531,-10.047,-11.009,-11.335,-4.337,1.264,-0.097,0.799,-0.479,0.977,1.129,-0.122,80.0,4902.0,1.0
806,-5.858,-16.115,-12.623,-5.397,-7.459,-7.72,-0.609,3.707,-0.098,0.8,-0.482,0.854,1.007,-0.122,80.0,4903.0,1.0
807,-4.819,-13.755,-9.394,-3.52,-5.154,-4.775,1.781,4.931,-0.095,0.799,-0.483,0.793,1.007,-0.122,80.0,4904.0,1.0
808,-4.923,-12.154,-7.421,-2.66,-4.071,-3.425,2.687,5.781,-0.097,0.799,-0.479,0.854,0.977,-0.031,80.0,4905.0,1.0
809,-5.517,-11.433,-6.816,-1.075,-4.019,-3.899,2.305,6.698,-0.096,0.799,-0.481,0.885,0.977,0.061,80.0,4906.0,1.0
810,-6.221,-11.35,-7.483,1.446,-4.843,-5.623,0.945,7.561,-0.097,0.798,-0.481,0.824,1.068,0.061,80.0,4907.0,1.0
811,-6.897,-11.386,-9.118,3.648,-6.243,-7.438,-0.873,7.965,-0.095,0.797,-0.48,0.793,1.007,0.061,80.0,4908.0,1.0
812,-7.302,-10.902,-11.109,3.833,-7.658,-8.212,-2.414,7.587,-0.094,0.798,-0.479,0.854,1.068,0.153,80.0,4909.0,1.0
813,-7.372,-9.753,-12.842,0.9,-8.661,-7.689,-3.189,6.305,-0.094,0.799,-0.482,0.916,1.129,0.153,80.0,4910.0,1.0
814,-7.559,-8.579,-14.088,-4.931,-9.279,-6.626,-3.256,4.209,-0.094,0.799,-0.48,1.007,1.16,0.183,80.0,4911.0,1.0
815,-8.142,-7.971,-14.748,-11.66,-9.563,-5.927,-2.892,1.897,-0.094,0.798,-0.477,0.977,1.16,0.275,80.0,4912.0,1.0
816,-8.401,-7.664,-14.447,-16.318,-9.201,-5.873,-2.267,0.373,-0.094,0.797,-0.479,1.007,1.16,0.244,80.0,4913.0,1.0
817,-7.221,-6.942,-12.805,-16.843,-7.925,-6.153,-1.589,0.321,-0.092,0.797,-0.483,1.038,1.19,0.122,80.0,4914.0,1.0
818,-4.485,-5.572,-10.056,-13.389,-6.071,-6.358,-1.236,1.668,-0.094,0.796,-0.479,1.068,1.221,0.092,80.0,4915.0,1.0
819,-1.371,-4.084,-7.201,-8.26,-4.485,-6.311,-1.504,3.788,-0.094,0.796,-0.479,1.038,1.221,0.061,80.0,4916.0,1.0
820,0.763,-3.198,-5.388,-4.378,-3.891,-6.04,-2.301,5.793,-0.094,0.794,-0.479,1.038,1.282,0.0,80.0,4917.0,1.0
821,1.26,-3.236,-5.164,-3.302,-4.44,-5.632,-3.255,6.641,-0.092,0.792,-0.48,1.16,1.312,-0.061,80.0,4918.0,1.0
822,0.063,-4.029,-6.257,-4.433,-5.688,-5.14,-3.996,5.618,-0.094,0.791,-0.479,1.19,1.282,-0.092,80.0,4919.0,1.0
823,-2.316,-4.979,-7.75,-5.534,-6.729,-4.459,-4.143,3.254,-0.092,0.789,-0.48,1.282,1.373,-0.122,80.0,4920.0,1.0
824,-4.608,-5.319,-8.451,-4.151,-6.577,-3.446,-3.304,1.293,-0.093,0.79,-0.48,1.434,1.312,-0.183,80.0,4921.0,1.0
825,-5.519,-4.782,-7.662,0.062,-5.036,-2.436,-1.506,1.03,-0.092,0.789,-0.48,1.526,1.373,-0.275,80.0,4922.0,1.0
826,-4.977,-3.96,-5.887,4.107,-3.25,-2.383,0.437,1.88,-0.092,0.791,-0.48,1.74,1.465,-0.305,80.0,4923.0,1.0
827,-4.104,-3.685,-4.485,4.01,-2.904,-4.091,1.402,2.075,-0.093,0.791,-0.479,1.678,1.434,-0.397,80.0,4924.0,1.0
828,-3.878,-4.183,-4.475,-1.491,-4.744,-7.354,0.837,0.57,-0.094,0.79,-0.48,1.831,1.343,-0.427,80.0,4925.0,1.0
829,-4.233,-4.932,-5.744,-9.965,-7.968,-11.006,-0.83,-2.018,-0.093,0.795,-0.483,1.923,1.404,-0.488,80.0,4926.0,1.0
830,-4.499,-5.209,-7.326,-17.356,-10.927,-13.642,-2.572,-4.19,-0.093,0.794,-0.48,1.953,1.465,-0.488,80.0,4927.0,1.0
831,-4.187,-4.589,-8.194,-20.655,-12.26,-14.302,-3.489,-4.97,-0.094,0.793,-0.481,2.167,1.404,-0.58,80.0,4928.0,1.0
832,-3.09,-2.987,-7.734,-19.016,-11.532,-12.849,-3.319,-4.474,-0.094,0.795,-0.482,2.167,1.495,-0.641,80.0,4929.0,1.0
833,-1.212,-0.621,-5.905,-13.481,-9.304,-10.023,-2.446,-3.492,-0.094,0.8,-0.48,2.167,1.434,-0.763,80.0,4930.0,1.0
834,0.916,1.875,-3.335,-6.351,-6.745,-7.014,-1.471,-2.686,-0.097,0.799,-0.485,2.197,1.373,-0.641,80.0,4931.0,1.0
835,2.207,3.42,-1.194,-0.359,-5.033,-4.854,-0.784,-2.113,-0.098,0.801,-0.484,2.106,1.373,-0.671,80.0,4932.0,1.0
836,1.935,3.021,-0.579,2.625,-4.853,-4.108,-0.537,-1.701,-0.1,0.803,-0.485,1.984,1.312,-0.763,80.0,4933.0,1.0
837,0.596,0.661,-1.615,2.888,-6.077,-4.713,-0.707,-1.7,-0.1,0.803,-0.483,1.801,1.221,-0.732,80.0,4934.0,1.0
838,-0.735,-2.673,-3.483,2.108,-7.915,-6.008,-1.035,-2.275,-0.096,0.803,-0.482,1.678,1.16,-0.671,80.0,4935.0,1.0
839,-1.79,-5.952,-5.485,0.644,-9.649,-7.225,-1.185,-3.285,-0.097,0.804,-0.483,1.709,1.099,-0.549,80.0,4936.0,1.0
840,-2.992,-8.64,-7.508,-2.783,-11.011,-7.907,-0.991,-4.477,-0.098,0.801,-0.486,1.617,1.007,-0.458,80.0,4937.0,1.0
841,-4.31,-10.48,-9.435,-8.455,-11.937,-7.918,-0.498,-5.553,-0.097,0.802,-0.484,1.465,1.007,-0.397,80.0,4938.0,1.0
842,-5.24,-11.451,-10.897,-14.486,-12.421,-7.46,0.054,-6.25,-0.096,0.801,-0.483,1.404,1.038,-0.305,80.0,4939.0,1.0
843,-5.71,-11.971,-11.723,-18.385,-12.578,-7.126,0.349,-6.377,-0.094,0.801,-0.484,1.434,1.038,-0.244,80.0,4940.0,1.0
844,-6.132,-12.615,-12.071,-18.778,-12.458,-7.512,0.351,-5.704,-0.096,0.801,-0.485,1.312,1.007,-0.183,80.0,4941.0,1.0
845,-6.549,-13.421,-11.956,-15.721,-11.811,-8.635,0.5,-4.051,-0.099,0.798,-0.483,1.251,0.977,-0.122,80.0,4942.0,1.0
846,-6.454,-13.731,-11.101,-10.333,-10.301,-9.879,1.269,-1.667,-0.099,0.798,-0.482,1.19,1.007,-0.122,80.0,4943.0,1.0
847,-5.53,-12.869,-9.42,-4.356,-8.026,-10.562,2.585,0.746,-0.097,0.797,-0.479,1.19,0.916,0.0,80.0,4944.0,1.0
848,-3.865,-10.688,-7.185,0.764,-5.544,-10.427,3.854,2.639,-0.098,0.798,-0.483,1.099,0.854,0.061,80.0,4945.0,1.0
849,-1.474,-7.445,-4.653,4.764,-3.419,-9.638,4.459,3.857,-0.099,0.797,-0.482,1.129,0.763,0.153,80.0,4946.0,1.0
850,1.545,-3.687,-2.094,7.986,-1.944,-8.516,4.182,4.298,-0.096,0.796,-0.481,1.068,0.61,0.122,80.0,4947.0,1.0
851,4.434,-0.156,-0.035,10.38,-1.037,-7.204,3.458,4.182,-0.096,0.796,-0.483,0.977,0.61,0.214,80.0,4948.0,1.0
852,6.102,2.623,0.994,11.573,-0.251,-5.517,3.218,4.395,-0.096,0.795,-0.484,0.885,0.671,0.244,80.0,4949.0,1.0
853,5.932,4.407,0.712,10.849,0.701,-3.362,4.041,5.381,-0.094,0.796,-0.481,0.885,0.641,0.275,80.0,4950.0,1.0
854,4.022,4.879,-0.996,7.239,1.399,-1.281,5.427,6.051,-0.095,0.795,-0.477,0.824,0.61,0.336,80.0,4951.0,1.0
855,0.899,3.672,-4.005,0.913,1.074,-0.199,6.212,4.874,-0.095,0.794,-0.48,0.824,0.671,0.275,80.0,4952.0,1.0
856,-2.665,0.924,-7.631,-5.876,-0.438,-0.515,5.801,1.821,-0.095,0.794,-0.482,0.702,0.61,0.244,80.0,4953.0,1.0
857,-5.575,-2.307,-10.561,-10.102,-2.228,-1.638,4.89,-1.328,-0.095,0.793,-0.484,0.793,0.671,0.275,80.0,4954.0,1.0
858,-6.688,-4.491,-11.46,-10.163,-2.914,-2.552,4.765,-2.507,-0.096,0.795,-0.482,0.671,0.641,0.275,80.0,4955.0,1.0
859,-5.68,-4.781,-9.914,-6.721,-1.788,-2.777,5.875,-1.089,-0.093,0.796,-0.482,0.702,0.732,0.244,80.0,4956.0,1.0
860,-3.446,-3.591,-6.734,-1.73,0.635,-2.617,7.313,1.708,-0.092,0.796,-0.482,0.793,0.763,0.214,80.0,4957.0,1.0
861,-1.273,-1.862,-3.259,2.988,3.205,-2.473,7.741,4.059,-0.093,0.797,-0.481,0.732,0.732,0.122,80.0,4958.0,1.0
862,0.262,-0.073,-0.48,6.462,5.113,-2.194,6.683,5.135,-0.092,0.795,-0.48,0.671,0.824,0.092,80.0,4959.0,1.0
863,1.319,1.668,1.19,8.579,6.164,-1.338,4.77,5.283,-0.093,0.796,-0.483,0.763,0.885,0.0,80.0,4960.0,1.0
864,2.151,3.06,1.712,9.697,6.342,0.118,2.862,4.857,-0.092,0.797,-0.482,0.824,0.885,0.061,80.0,4961.0,1.0
865,2.922,3.767,1.347,10.021,5.643,1.687,1.36,3.62,-0.091,0.794,-0.478,0.824,0.977,0.0,80.0,4962.0,1.0
866,3.836,3.871,0.591,9.348,4.334,2.923,0.326,1.428,-0.091,0.794,-0.484,0.824,1.007,-0.061,80.0,4963.0,1.0
867,4.951,3.74,-0.096,7.7,3.019,3.75,-0.215,-1.071,-0.093,0.794,-0.483,0.854,1.038,-0.183,80.0,4964.0,1.0
868,5.98,3.593,-0.47,5.971,2.374,4.304,-0.175,-2.522,-0.094,0.794,-0.481,0.977,1.129,-0.183,80.0,4965.0,1.0
869,6.604,3.328,-0.481,5.249,2.746,4.554,0.461,-1.848,-0.092,0.792,-0.483,0.916,1.16,-0.244,80.0,4966.0,1.0
870,6.887,2.689,-0.224,5.449,3.852,4.147,1.461,0.53,-0.093,0.794,-0.48,1.038,1.312,-0.214,80.0,4967.0,1.0
871,7.005,1.528,0.047,5.33,4.984,2.788,2.563,2.971,-0.093,0.794,-0.478,1.068,1.19,-0.214,80.0,4968.0,1.0
872,6.684,-0.045,0.001,3.918,5.562,0.755,3.759,4.215,-0.093,0.794,-0.479,1.068,1.251,-0.275,80.0,4969.0,1.0
873,5.518,-1.593,-0.485,1.564,5.45,-1.165,5.115,4.186,-0.097,0.796,-0.481,1.129,1.282,-0.244,80.0,4970.0,1.0
874,3.834,-2.454,-1.031,-0.264,4.901,-2.323,6.487,3.525,-0.097,0.795,-0.48,1.221,1.19,-0.244,80.0,4971.0,1.0
875,2.594,-2.213,-1.027,-0.318,4.201,-2.771,7.481,2.836,-0.095,0.796,-0.478,1.282,1.343,-0.244,80.0,4972.0,1.0
876,2.332,-1.12,-0.306,1.247,3.25,-3.143,7.552,2.197,-0.095,0.796,-0.477,1.251,1.251,-0.305,80.0,4973.0,1.0
877,2.79,0.14,0.763,3.322,1.743,-3.885,6.364,1.258,-0.094,0.795,-0.479,1.312,1.282,-0.336,80.0,4974.0,1.0
878,3.6,1.114,1.827,5.004,-0.25,-4.678,4.204,-0.273,-0.097,0.796,-0.483,1.343,1.251,-0.275,80.0,4975.0,1.0
879,4.555,1.776,2.696,5.766,-2.281,-4.804,1.813,-2.435,-0.095,0.795,-0.482,1.282,1.251,-0.275,80.0,4976.0,1.0
880,5.219,2.132,3.144,5.362,-4.007,-3.925,-0.171,-4.942,-0.094,0.794,-0.481,1.343,1.221,-0.214,80.0,4977.0,1.0
881,5.161,2.157,3.139,4.462,-5.209,-2.225,-1.423,-7.038,-0.095,0.796,-0.48,1.343,1.099,-0.244,80.0,4978.0,1.0
882,4.586,2.098,2.987,4.429,-5.599,-0.051,-1.825,-7.923,-0.096,0.796,-0.481,1.312,1.16,-0.214,80.0,4979.0,1.0
883,3.946,2.261,2.705,5.314,-5.164,2.176,-1.571,-7.688,-0.097,0.798,-0.483,1.343,1.282,-0.183,80.0,4980.0,1.0
884,2.954,2.443,1.679,5.156,-4.418,3.996,-1.093,-7.244,-0.096,0.799,-0.483,1.343,1.19,-0.153,80.0,4981.0,1.0
885,0.763,2.023,-0.472,2.683,-3.798,5.276,-0.525,-6.998,-0.095,0.799,-0.482,1.343,1.129,0.061,80.0,4982.0,1.0
886,-2.727,0.744,-3.098,-0.645,-3.128,6.314,0.479,-6.366,-0.094,0.797,-0.483,1.373,1.129,-0.061,80.0,4983.0,1.0
887,-6.299,-0.85,-5.026,-2.486,-2.01,7.399,2.214,-4.808,-0.095,0.797,-0.484,1.312,1.007,-0.092,80.0,4984.0,1.0
888,-8.463,-1.947,-5.564,-2.12,-0.419,8.403,4.477,-2.601,-0.095,0.799,-0.485,1.282,0.946,-0.092,80.0,4985.0,1.0
889,-8.826,-2.302,-4.879,-0.44,1.2,8.754,6.587,-0.477,-0.095,0.796,-0.486,1.251,0.977,-0.061,80.0,4986.0,1.0
890,-8.028,-2.272,-3.593,1.551,2.32,7.813,7.805,1.09,-0.098,0.798,-0.486,1.251,1.007,0.0,80.0,4987.0,1.0
891,-6.631,-2.112,-2.178,3.594,2.777,5.478,7.859,2.218,-0.097,0.798,-0.486,1.282,1.038,-0.061,80.0,4988.0,1.0
892,-4.883,-1.759,-0.948,5.494,2.662,2.344,6.95,3.083,-0.095,0.799,-0.48,1.221,0.977,-0.031,80.0,4989.0,1.0
893,-3.261,-1.258,-0.302,6.213,1.895,-0.774,5.314,3.094,-0.093,0.798,-0.482,1.129,0.916,0.0,80.0,4990.0,1.0
894,-2.18,-0.694,-0.383,4.516,0.446,-3.239,3.26,1.393,-0.092,0.796,-0.485,0.946,0.946,-0.031,80.0,4991.0,1.0
895,-1.262,0.217,-0.607,0.555,-1.108,-4.604,1.481,-1.759,-0.092,0.795,-0.483,0.916,0.946,-0.031,80.0,4992.0,1.0
896,0.332,1.947,-0.064,-3.749,-1.795,-4.625,0.813,-4.848,-0.091,0.796,-0.485,0.885,0.885,0.0,80.0,4993.0,1.0
897,2.769,4.487,1.6,-5.927,-1.045,-3.428,1.65,-6.184,-0.091,0.797,-0.483,0.916,0.916,-0.061,80.0,4994.0,1.0
898,5.236,7.062,3.914,-4.567,0.934,-1.614,3.681,-4.897,-0.093,0.796,-0.486,1.007,1.007,-0.031,80.0,4995.0,1.0
899,6.857,8.674,6.106,-0.324,3.401,-0.1,6.029,-1.526,-0.092,0.795,-0.485,0.824,1.007,-0.031,80.0,4996.0,1.0
900,7.53,8.969,7.726,4.442,5.532,0.395,7.679,2.206,-0.092,0.791,-0.485,0.732,1.068,-0.061,80.0,4997.0,1.0
901,7.67,8.365,8.722,7.393,6.778,-0.116,8.076,4.622,-0.093,0.79,-0.485,1.007,1.129,-0.092,80.0,4998.0,1.0
902,7.629,7.448,9.143,7.752,7.04,-0.953,7.44,5.144,-0.095,0.791,-0.481,1.007,1.038,-0.092,80.0,4999.0,1.0
903,7.682,6.647,9.082,6.526,6.749,-1.317,6.577,4.29,-0.096,0.792,-0.484,1.099,1.007,-0.214,80.0,5000.0,1.0
904,8.199,6.42,8.918,5.726,6.774,-0.699,6.412,3.084,-0.096,0.792,-0.487,1.129,1.007,-0.214,80.0,5001.0,1.0
905,9.25,7.048,9.153,7.22,7.867,1.012,7.452,2.523,-0.094,0.792,-0.484,1.19,0.977,-0.275,80.0,5002.0,1.0
906,9.985,7.941,9.632,11.135,9.853,3.335,9.341,2.997,-0.096,0.792,-0.483,1.251,0.946,-0.366,80.0,5003.0,1.0
907,9.031,7.744,9.308,15.172,11.568,5.246,11.047,3.975,-0.094,0.792,-0.485,1.312,0.885,-0.366,80.0,5004.0,1.0
908,5.78,5.526,7.188,16.265,11.84,5.825,11.73,4.553,-0.095,0.793,-0.485,1.343,0.916,-0.366,80.0,5005.0,1.0
909,0.854,1.528,3.266,12.925,10.259,4.811,11.214,4.195,-0.097,0.794,-0.484,1.343,0.916,-0.397,80.0,5006.0,1.0
910,-4.468,-3.1,-1.443,6.162,7.107,2.551,9.639,2.812,-0.094,0.794,-0.486,1.343,0.946,-0.488,80.0,5007.0,1.0
911,-8.715,-6.918,-5.435,-1.271,3.154,-0.308,7.202,0.557,-0.095,0.796,-0.482,1.343,1.038,-0.427,80.0,5008.0,1.0
912,-10.575,-8.893,-7.43,-6.385,-0.472,-3.097,4.423,-2.048,-0.094,0.797,-0.486,1.251,0.885,-0.397,80.0,5009.0,1.0
913,-9.662,-8.9,-7.028,-7.301,-2.765,-5.334,2.242,-3.905,-0.093,0.796,-0.484,1.251,0.885,-0.366,80.0,5010.0,1.0
914,-7.001,-7.653,-4.93,-4.213,-3.41,-6.859,1.453,-3.771,-0.094,0.797,-0.484,1.068,0.885,-0.458,80.0,5011.0,1.0
915,-4.336,-6.165,-2.5,0.532,-2.946,-7.945,2.0,-1.396,-0.093,0.795,-0.48,1.068,0.946,-0.488,80.0,5012.0,1.0
916,-2.819,-5.187,-0.955,3.912,-2.357,-9.213,2.954,1.814,-0.094,0.797,-0.483,0.916,0.824,-0.275,80.0,5013.0,1.0
917,-2.496,-4.963,-0.745,4.432,-2.294,-11.121,3.307,3.951,-0.094,0.797,-0.483,0.854,0.977,-0.336,80.0,5014.0,1.0
918,-2.871,-5.394,-1.473,3.235,-2.556,-13.421,2.781,4.414,-0.094,0.797,-0.483,0.854,0.977,-0.336,80.0,5015.0,1.0
919,-3.429,-6.201,-2.268,2.892,-2.359,-15.233,1.862,4.033,-0.094,0.799,-0.484,0.824,0.977,-0.305,80.0,5016.0,1.0
920,-3.708,-6.943,-2.412,4.633,-1.224,-15.82,1.081,3.657,-0.092,0.798,-0.482,0.702,0.916,-0.244,80.0,5017.0,1.0
921,-3.551,-7.297,-1.916,6.919,0.386,-15.193,0.413,3.248,-0.094,0.797,-0.485,0.61,0.946,-0.275,80.0,5018.0,1.0
922,-3.303,-7.342,-1.422,7.376,1.473,-13.776,-0.403,2.358,-0.096,0.796,-0.486,0.58,1.007,-0.336,80.0,5019.0,1.0
923,-3.149,-7.225,-1.402,5.699,1.531,-11.782,-1.207,1.036,-0.097,0.797,-0.484,0.549,1.007,-0.275,80.0,5020.0,1.0
924,-2.468,-6.798,-1.682,3.69,0.933,-9.322,-1.469,-0.099,-0.093,0.796,-0.486,0.488,1.007,-0.214,80.0,5021.0,1.0
925,-0.364,-5.969,-1.87,2.963,0.283,-6.933,-0.911,-0.488,-0.095,0.796,-0.485,0.58,1.007,-0.153,80.0,5022.0,1.0
926,3.43,-4.983,-1.773,3.791,-0.199,-5.416,0.194,-0.058,-0.098,0.795,-0.484,0.488,0.946,-0.183,80.0,5023.0,1.0
927,8.592,-3.934,-1.136,5.788,-0.526,-5.021,1.288,0.843,-0.097,0.793,-0.483,0.458,0.824,-0.183,80.0,5024.0,1.0
928,14.919,-2.295,0.689,8.806,-0.454,-5.117,1.971,1.796,-0.096,0.794,-0.485,0.58,0.824,-0.214,80.0,5025.0,1.0
929,22.416,0.669,4.367,12.879,0.545,-4.716,2.313,2.739,-0.094,0.792,-0.485,0.58,0.824,-0.275,80.0,5026.0,1.0
930,30.704,5.138,9.872,17.647,2.784,-3.218,2.794,4.063,-0.095,0.794,-0.484,0.519,0.824,-0.244,80.0,5027.0,1.0
931,38.821,10.562,16.357,22.311,5.91,-0.851,3.692,5.975,-0.095,0.791,-0.483,0.61,0.793,-0.275,80.0,5028.0,1.0
932,45.669,16.033,22.563,25.87,8.903,1.41,4.482,7.752,-0.095,0.793,-0.485,0.58,0.763,-0.305,80.0,5029.0,1.0
933,50.534,20.636,27.36,27.546,10.63,2.589,4.231,8.169,-0.094,0.793,-0.482,0.671,0.763,-0.336,80.0,5030.0,1.0
934,53.131,23.528,30.078,27.409,10.515,2.444,2.593,6.75,-0.096,0.793,-0.484,0.763,0.763,-0.366,80.0,5031.0,1.0
935,53.323,24.079,30.533,26.301,8.696,1.397,0.138,4.219,-0.095,0.792,-0.485,0.793,0.763,-0.366,80.0,5032.0,1.0
936,51.285,22.285,29.05,25.051,5.849,0.065,-2.117,1.843,-0.095,0.792,-0.484,0.793,0.732,-0.336,80.0,5033.0,1.0
937,47.882,19.007,26.482,23.939,2.957,-0.952,-3.269,0.556,-0.097,0.792,-0.482,0.854,0.763,-0.427,80.0,5034.0,1.0
938,44.186,15.489,23.79,22.586,0.862,-1.238,-2.941,0.48,-0.096,0.795,-0.48,0.824,0.702,-0.366,80.0,5035.0,1.0
939,40.591,12.574,21.457,20.51,-0.197,-0.93,-1.454,1.116,-0.097,0.795,-0.481,0.885,0.732,-0.366,80.0,5036.0,1.0
940,36.865,10.384,19.388,17.876,-0.555,-0.716,0.416,1.905,-0.097,0.794,-0.481,0.854,0.732,-0.366,80.0,5037.0,1.0
941,32.902,8.584,17.238,15.24,-0.807,-1.162,1.938,2.195,-0.097,0.795,-0.48,0.854,0.671,-0.366,80.0,5038.0,1.0
942,28.903,6.74,14.74,12.832,-1.544,-2.131,2.784,1.122,-0.096,0.795,-0.479,0.977,0.61,-0.427,80.0,5039.0,1.0
943,24.914,4.549,11.907,10.732,-3.007,-2.937,3.107,-1.543,-0.096,0.795,-0.482,0.946,0.58,-0.397,80.0,5040.0,1.0
944,20.792,2.109,9.074,9.22,-4.761,-2.9,3.435,-4.671,-0.095,0.795,-0.482,0.916,0.732,-0.275,80.0,5041.0,1.0
945,16.587,-0.047,6.593,8.186,-5.975,-1.779,4.287,-6.63,-0.097,0.794,-0.484,0.916,0.702,-0.214,80.0,5042.0,1.0
946,12.488,-1.429,4.428,6.716,-6.219,0.08,5.583,-6.715,-0.096,0.795,-0.485,0.885,0.641,-0.366,80.0,5043.0,1.0
947,8.689,-1.93,2.399,4.153,-5.732,1.979,6.708,-5.305,-0.096,0.797,-0.482,0.977,0.488,-0.214,80.0,5044.0,1.0
948,5.687,-1.572,0.771,1.099,-4.874,3.404,7.357,-3.014,-0.097,0.795,-0.483,0.977,0.366,-0.183,80.0,5045.0,1.0
949,4.331,-0.323,0.141,-1.25,-3.771,4.288,7.846,-0.506,-0.099,0.794,-0.483,0.977,0.427,-0.092,80.0,5046.0,1.0
950,5.019,1.575,0.658,-2.215,-2.615,4.734,8.354,1.179,-0.1,0.794,-0.48,0.946,0.336,-0.122,80.0,5047.0,1.0
951,6.892,3.331,1.593,-1.843,-1.967,4.643,8.373,1.076,-0.098,0.795,-0.484,0.946,0.336,-0.122,80.0,5048.0,1.0
952,8.367,4.044,1.874,-0.638,-2.365,3.834,7.278,-0.792,-0.096,0.795,-0.482,0.977,0.275,-0.092,80.0,5049.0,1.0
953,8.704,3.564,1.193,0.879,-3.573,2.506,5.283,-3.229,-0.098,0.795,-0.482,1.038,0.275,-0.092,80.0,5050.0,1.0
954,8.588,2.671,0.387,2.613,-4.549,1.287,3.45,-4.797,-0.096,0.793,-0.482,1.068,0.336,-0.092,80.0,5051.0,1.0
955,9.072,2.344,0.597,4.63,-4.383,0.742,2.707,-5.038,-0.098,0.794,-0.485,1.038,0.336,0.031,80.0,5052.0,1.0
956,10.648,3.094,2.366,6.544,-3.059,0.959,3.065,-4.658,-0.098,0.794,-0.484,1.007,0.214,0.153,80.0,5053.0,1.0
957,13.519,5.077,5.602,7.595,-1.127,1.669,3.842,-4.57,-0.094,0.794,-0.48,1.007,0.214,0.214,80.0,5054.0,1.0
958,18.012,8.495,10.049,7.564,1.195,2.793,4.589,-4.883,-0.097,0.794,-0.481,1.068,0.305,0.366,80.0,5055.0,1.0
959,24.206,13.484,15.523,7.518,4.388,4.788,5.66,-4.7,-0.097,0.794,-0.483,1.068,0.305,0.305,80.0,5056.0,1.0
960,31.37,19.715,21.766,9.346,9.137,8.419,7.86,-2.7,-0.098,0.794,-0.484,1.099,0.244,0.366,80.0,5057.0,1.0
961,38.259,26.409,28.29,14.188,15.545,14.168,11.65,1.749,-0.097,0.793,-0.479,1.129,0.305,0.427,80.0,5058.0,1.0
962,43.803,32.512,34.162,20.755,22.487,21.448,16.445,7.281,-0.099,0.796,-0.48,1.221,0.305,0.458,80.0,5059.0,1.0
963,47.126,36.7,37.964,25.631,27.719,28.309,20.588,10.716,-0.099,0.796,-0.481,1.129,0.397,0.397,80.0,5060.0,1.0
964,47.555,37.951,38.606,26.354,29.361,32.511,22.49,9.703,-0.099,0.796,-0.481,1.099,0.549,0.427,80.0,5061.0,1.0
965,45.217,36.4,36.385,23.73,27.424,33.068,21.88,5.027,-0.1,0.795,-0.483,1.16,0.397,0.519,80.0,5062.0,1.0
966,41.278,33.257,32.885,20.747,23.559,30.517,19.645,-0.213,-0.095,0.797,-0.483,1.129,0.427,0.427,80.0,5063.0,1.0
967,37.206,29.822,29.774,20.01,19.553,26.046,16.889,-3.096,-0.094,0.797,-0.486,1.129,0.549,0.427,80.0,5064.0,1.0
968,33.782,26.693,27.703,21.875,16.263,20.753,14.455,-2.48,-0.096,0.796,-0.486,1.129,0.458,0.458,80.0,5065.0,1.0
969,30.946,23.787,26.273,24.246,13.636,15.504,12.848,0.84,-0.097,0.797,-0.484,1.129,0.58,0.397,80.0,5066.0,1.0
970,28.347,20.886,24.807,24.345,11.233,10.878,12.037,4.968,-0.098,0.796,-0.482,1.099,0.61,0.336,80.0,5067.0,1.0
971,25.603,17.893,22.828,20.92,8.537,6.914,11.29,8.117,-0.096,0.796,-0.482,1.038,0.58,0.336,80.0,5068.0,1.0
972,22.336,14.778,20.161,15.354,5.227,3.25,9.726,9.678,-0.097,0.797,-0.482,1.129,0.641,0.275,80.0,5069.0,1.0
973,18.608,11.734,17.159,10.942,1.607,-0.087,7.331,10.358,-0.097,0.796,-0.484,1.099,0.702,0.336,80.0,5070.0,1.0
974,15.07,9.287,14.541,9.992,-1.575,-2.431,4.974,10.916,-0.095,0.796,-0.482,1.038,0.793,0.183,80.0,5071.0,1.0
975,12.172,7.863,12.62,11.487,-3.98,-3.246,3.209,10.937,-0.095,0.797,-0.484,1.007,0.854,0.214,80.0,5072.0,1.0
976,9.487,7.233,10.891,12.233,-6.023,-2.804,1.553,9.299,-0.094,0.798,-0.479,0.977,0.763,0.061,80.0,5073.0,1.0
977,6.215,6.667,8.608,9.896,-8.272,-1.875,-0.788,5.544,-0.094,0.797,-0.481,0.946,0.916,0.0,80.0,5074.0,1.0
978,2.316,5.808,5.81,4.894,-10.608,-1.001,-3.782,0.585,-0.096,0.799,-0.482,0.916,0.854,0.0,80.0,5075.0,1.0
979,-1.299,5.047,3.569,-0.147,-12.1,-0.285,-6.403,-3.657,-0.098,0.796,-0.486,0.885,0.824,-0.122,80.0,5076.0,1.0
980,-3.814,4.918,3.066,-2.583,-11.757,0.35,-7.459,-5.308,-0.096,0.799,-0.485,0.793,0.916,-0.092,80.0,5077.0,1.0
981,-5.264,5.541,4.599,-1.547,-9.359,0.946,-6.49,-3.663,-0.096,0.797,-0.486,0.854,0.916,-0.122,80.0,5078.0,1.0
982,-6.108,6.747,7.47,1.864,-5.589,1.518,-3.956,0.224,-0.095,0.794,-0.485,0.702,0.946,-0.183,80.0,5079.0,1.0
983,-6.634,8.284,10.517,5.626,-1.498,2.113,-0.683,4.236,-0.097,0.796,-0.487,0.702,0.977,-0.214,80.0,5080.0,1.0
984,-7.112,9.697,12.665,7.962,2.063,2.792,2.719,6.776,-0.098,0.796,-0.486,0.61,0.977,-0.244,80.0,5081.0,1.0
985,-8.066,10.317,13.227,7.997,4.601,3.592,5.904,7.568,-0.096,0.796,-0.484,0.61,0.977,-0.305,80.0,5082.0,1.0
986,-9.895,9.765,12.131,6.027,5.937,4.549,8.538,7.225,-0.097,0.797,-0.485,0.519,0.916,-0.214,80.0,5083.0,1.0
987,-12.287,8.348,9.982,3.369,6.168,5.652,10.211,6.454,-0.097,0.798,-0.483,0.549,1.038,-0.305,80.0,5084.0,1.0
988,-14.489,6.624,7.589,1.443,5.436,6.592,10.44,5.336,-0.095,0.798,-0.484,0.427,0.977,-0.214,80.0,5085.0,1.0
989,-16.176,4.746,5.298,0.688,3.716,6.695,8.862,3.354,-0.098,0.796,-0.484,0.427,1.038,-0.336,80.0,5086.0,1.0
990,-17.628,2.65,3.056,0.452,1.109,5.447,5.722,0.425,-0.099,0.798,-0.481,0.336,0.946,-0.214,80.0,5087.0,1.0
991,-19.09,0.692,0.922,-0.18,-1.862,3.076,1.946,-2.603,-0.101,0.797,-0.482,0.305,1.068,-0.275,80.0,5088.0,1.0
992,-20.513,-0.457,-0.859,-1.353,-4.523,0.407,-1.455,-4.537,-0.099,0.796,-0.479,0.275,0.977,-0.244,80.0,5089.0,1.0
993,-21.994,-0.608,-2.276,-2.28,-6.589,-1.778,-3.946,-4.638,-0.099,0.796,-0.478,0.275,0.977,-0.275,80.0,5090.0,1.0
994,-23.966,-0.486,-3.829,-2.431,-8.411,-3.242,-5.637,-3.25,-0.1,0.797,-0.479,0.275,0.946,-0.275,80.0,5091.0,1.0
995,-26.706,-1.113,-6.134,-2.195,-10.517,-4.155,-6.947,-1.584,-0.1,0.8,-0.479,0.336,1.007,-0.153,80.0,5092.0,1.0
996,-30.036,-2.913,-9.336,-2.199,-12.887,-4.635,-7.974,-0.505,-0.1,0.799,-0.483,0.275,0.977,-0.061,80.0,5093.0,1.0
997,-33.714,-5.684,-13.125,-3.027,-14.971,-4.791,-8.43,0.115,-0.1,0.797,-0.483,0.336,1.007,-0.214,80.0,5094.0,1.0
998,-37.462,-8.956,-16.917,-5.278,-16.191,-4.98,-8.139,0.776,-0.098,0.798,-0.484,0.244,0.946,-0.122,80.0,5095.0,1.0
999,-40.454,-11.96,-19.781,-8.847,-16.075,-5.464,-7.134,1.713,-0.098,0.798,-0.482,0.214,0.885,-0.061,80.0,5096.0,1.0
1000,-41.746,-13.879,-20.845,-12.492,-14.308,-5.917,-5.322,2.959,-0.098,0.797,-0.481,0.275,0.824,-0.092,80.0,5097.0,1.0
1001,-41.543,-14.641,-20.12,-14.726,-11.121,-5.663,-2.537,4.443,-0.098,0.797,-0.48,0.275,0.824,0.0,80.0,5098.0,1.0
1002,-41.197,-14.994,-18.529,-14.981,-7.407,-4.302,1.02,5.823,-0.097,0.796,-0.48,0.305,0.824,0.031,80.0,5099.0,1.0
1003,-41.688,-15.547,-17.011,-13.89,-4.116,-1.956,4.699,6.56,-0.096,0.799,-0.479,0.244,0.854,0.092,80.0,5100.0,1.0
1004,-42.705,-16.09,-15.873,-12.616,-1.633,0.928,7.789,6.408,-0.096,0.798,-0.476,0.183,0.824,0.122,80.0,5101.0,1.0
1005,-43.417,-15.944,-14.986,-12.002,0.195,3.822,9.902,5.784,-0.096,0.8,-0.478,0.214,0.732,0.153,80.0,5102.0,1.0
1006,-43.575,-14.79,-14.225,-12.28,1.624,6.203,11.059,5.535,-0.097,0.798,-0.474,0.244,0.824,0.122,80.0,5103.0,1.0
1007,-43.332,-12.84,-13.425,-12.98,2.934,7.68,11.629,6.417,-0.098,0.798,-0.478,0.336,0.732,0.122,80.0,5104.0,1.0
1008,-42.466,-10.291,-12.135,-12.931,4.648,8.277,12.269,8.818,-0.097,0.797,-0.479,0.366,0.793,0.092,80.0,5105.0,1.0
1009,-40.774,-7.231,-10.066,-11.254,7.168,8.403,13.584,12.44,-0.098,0.799,-0.479,0.336,0.824,0.0,80.0,5106.0,1.0
1010,-38.889,-4.135,-7.751,-8.426,10.149,8.48,15.663,16.105,-0.098,0.8,-0.479,0.427,0.824,0.031,80.0,5107.0,1.0
1011,-37.726,-1.797,-6.187,-5.772,12.737,8.802,18.099,18.338,-0.097,0.799,-0.48,0.397,0.793,0.031,80.0,5108.0,1.0
1012,-37.412,-0.698,-5.899,-4.202,14.442,9.675,20.487,18.406,-0.098,0.798,-0.478,0.427,0.916,0.092,80.0,5109.0,1.0
1013,-37.318,-0.641,-6.51,-3.582,15.502,11.457,22.734,16.833,-0.097,0.798,-0.479,0.458,0.916,0.122,80.0,5110.0,1.0
1014,-36.788,-0.924,-7.047,-2.917,16.504,14.331,24.878,14.973,-0.097,0.796,-0.479,0.427,0.916,0.061,80.0,5111.0,1.0
1015,-35.527,-0.853,-6.635,-1.232,17.757,17.972,26.757,14.003,-0.096,0.797,-0.48,0.519,0.977,0.153,80.0,5112.0,1.0
1016,-33.737,-0.34,-5.273,1.098,18.787,21.382,27.718,13.88,-0.097,0.796,-0.482,0.61,0.916,0.061,80.0,5113.0,1.0
1017,-32.248,-0.12,-4.146,1.637,18.268,23.119,26.587,12.969,-0.099,0.796,-0.479,0.61,0.946,0.0,80.0,5114.0,1.0
1018,-32.059,-1.161,-4.704,-2.218,14.958,22.144,22.531,9.496,-0.095,0.796,-0.479,0.793,1.007,0.092,80.0,5115.0,1.0
1019,-33.221,-3.659,-7.103,-10.025,9.082,18.708,16.195,3.711,-0.095,0.797,-0.478,0.732,1.068,0.0,80.0,5116.0,1.0
1020,-34.462,-6.708,-9.913,-18.26,2.478,14.229,9.568,-2.178,-0.096,0.795,-0.478,0.793,1.16,0.0,80.0,5117.0,1.0
1021,-34.341,-9.003,-11.491,-23.626,-2.697,10.289,4.747,-5.939,-0.097,0.797,-0.479,0.824,1.19,0.031,80.0,5118.0,1.0
1022,-32.616,-9.775,-11.249,-25.312,-5.204,7.845,2.974,-6.513,-0.098,0.797,-0.48,0.916,1.19,-0.061,80.0,5119.0,1.0
1023,-30.15,-9.116,-9.632,-24.34,-5.013,7.049,4.321,-4.071,-0.097,0.798,-0.48,0.977,1.312,-0.031,80.0,5120.0,1.0
1024,-27.73,-7.596,-7.394,-21.852,-2.954,7.401,7.796,0.258,-0.096,0.798,-0.476,1.007,1.251,-0.092,80.0,5121.0,1.0
1025,-25.559,-5.882,-5.177,-18.344,-0.182,8.081,11.897,4.965,-0.097,0.799,-0.478,1.007,1.251,-0.031,80.0,5122.0,1.0
1026,-23.802,-4.657,-3.544,-14.456,2.239,8.34,15.24,8.821,-0.095,0.799,-0.478,1.068,1.343,-0.061,80.0,5123.0,1.0
1027,-22.751,-4.404,-2.87,-11.697,3.58,7.764,16.829,11.047,-0.097,0.797,-0.481,1.068,1.312,-0.122,80.0,5124.0,1.0
1028,-22.048,-4.876,-2.833,-11.092,3.78,6.538,16.301,11.42,-0.097,0.799,-0.479,1.099,1.312,-0.122,80.0,5125.0,1.0
1029,-20.557,-5.17,-2.398,-11.529,3.652,5.463,14.289,10.559,-0.096,0.799,-0.479,1.068,1.404,-0.214,80.0,5126.0,1.0
1030,-17.723,-4.704,-0.805,-10.504,4.348,5.362,12.237,9.782,-0.095,0.8,-0.476,1.221,1.465,-0.092,80.0,5127.0,1.0
1031,-14.492,-3.787,1.6,-6.561,6.384,6.391,11.463,10.224,-0.096,0.798,-0.48,1.16,1.526,0.0,80.0,5128.0,1.0
1032,-12.35,-3.108,3.61,-1.262,9.168,8.035,12.246,11.772,-0.099,0.797,-0.48,1.16,1.495,-0.031,80.0,5129.0,1.0
1033,-11.91,-2.952,4.163,1.845,11.65,9.809,13.953,13.204,-0.098,0.799,-0.478,1.129,1.434,-0.061,80.0,5130.0,1.0
1034,-12.759,-3.073,3.149,0.906,13.367,11.743,15.958,13.7,-0.098,0.799,-0.479,1.129,1.373,-0.061,80.0,5131.0,1.0
1035,-14.272,-3.201,1.172,-2.84,14.366,13.857,17.848,13.398,-0.098,0.798,-0.479,1.129,1.404,-0.061,80.0,5132.0,1.0
1036,-16.017,-3.379,-1.174,-7.133,14.418,15.437,18.888,12.43,-0.097,0.797,-0.479,1.221,1.526,-0.031,80.0,5133.0,1.0
1037,-17.463,-3.698,-3.4,-10.533,13.184,15.406,18.192,10.734,-0.098,0.797,-0.481,1.251,1.617,-0.092,80.0,5134.0,1.0
1038,-17.963,-3.951,-4.875,-12.531,11.034,13.403,15.647,8.813,-0.095,0.797,-0.479,1.251,1.526,-0.061,80.0,5135.0,1.0
1039,-17.117,-3.656,-4.88,-12.776,9.178,10.23,12.245,7.836,-0.096,0.797,-0.476,1.373,1.587,0.031,80.0,5136.0,1.0
1040,-14.836,-2.32,-2.88,-10.44,8.901,7.27,9.34,8.863,-0.096,0.795,-0.475,1.373,1.465,0.061,80.0,5137.0,1.0
1041,-11.208,0.195,1.069,-5.108,10.589,5.484,7.57,11.698,-0.095,0.794,-0.478,1.373,1.495,0.183,80.0,5138.0,1.0
1042,-6.703,3.359,6.029,1.69,13.326,4.942,6.638,14.541,-0.095,0.795,-0.482,1.404,1.587,0.153,80.0,5139.0,1.0
1043,-2.358,6.025,10.495,7.265,15.611,5.103,6.049,15.514,-0.098,0.794,-0.48,1.556,1.434,0.061,80.0,5140.0,1.0
1044,0.646,6.929,13.102,9.927,16.41,5.188,5.637,14.377,-0.097,0.795,-0.479,1.648,1.434,0.061,80.0,5141.0,1.0
1045,1.715,5.344,13.165,9.582,15.591,4.49,5.479,12.333,-0.096,0.795,-0.48,1.709,1.434,0.031,80.0,5142.0,1.0
1046,1.046,1.447,10.922,7.232,13.685,2.792,5.702,10.765,-0.096,0.791,-0.475,1.678,1.495,-0.031,80.0,5143.0,1.0
1047,-0.82,-3.774,7.315,4.089,11.368,0.508,6.377,10.338,-0.095,0.791,-0.477,1.831,1.373,-0.061,80.0,5144.0,1.0
1048,-3.201,-8.84,3.571,0.87,9.235,-1.557,7.521,10.988,-0.096,0.788,-0.475,1.923,1.343,-0.031,80.0,5145.0,1.0
1049,-4.939,-12.097,1.016,-1.731,7.993,-2.458,9.225,12.579,-0.095,0.788,-0.479,2.045,1.373,-0.061,80.0,5146.0,1.0
1050,-4.79,-12.375,0.569,-2.938,8.209,-1.529,11.449,14.914,-0.097,0.787,-0.48,2.136,1.343,0.0,80.0,5147.0,1.0
1051,-2.57,-9.85,2.011,-2.65,9.675,1.084,13.643,17.082,-0.097,0.788,-0.482,2.197,1.404,-0.061,80.0,5148.0,1.0
1052,0.787,-5.935,4.263,-1.212,11.606,4.526,15.06,17.875,-0.094,0.79,-0.482,2.289,1.373,0.031,80.0,5149.0,1.0
1053,4.481,-2.023,6.554,1.434,13.53,7.911,15.523,17.129,-0.091,0.791,-0.48,2.35,1.404,0.031,80.0,5150.0,1.0
1054,8.491,1.439,8.945,5.665,15.485,10.739,15.505,15.927,-0.094,0.792,-0.479,2.35,1.495,0.031,80.0,5151.0,1.0
1055,12.778,4.588,11.6,11.01,17.338,12.76,15.362,15.161,-0.095,0.793,-0.479,2.258,1.312,0.061,80.0,5152.0,1.0
1056,16.581,7.404,14.035,15.36,18.441,13.8,14.831,14.425,-0.096,0.792,-0.482,2.319,1.373,0.031,80.0,5153.0,1.0
1057,19.132,9.744,15.561,16.353,18.313,13.924,13.535,12.872,-0.098,0.793,-0.482,2.411,1.312,0.061,80.0,5154.0,1.0
1058,20.598,11.674,16.136,13.663,17.262,13.487,11.655,10.583,-0.098,0.794,-0.481,2.35,1.373,0.061,80.0,5155.0,1.0
1059,21.832,13.393,16.377,9.42,16.019,12.85,9.761,8.47,-0.098,0.796,-0.484,2.228,1.343,0.031,80.0,5156.0,1.0
1060,23.503,15.143,16.981,6.52,15.121,12.257,8.312,7.346,-0.097,0.797,-0.484,2.289,1.221,0.0,80.0,5157.0,1.0
1061,25.741,17.206,18.278,6.511,14.797,11.889,7.527,7.431,-0.096,0.798,-0.485,2.197,1.251,0.061,80.0,5158.0,1.0
1062,28.269,19.595,20.072,8.939,15.055,11.743,7.476,8.407,-0.096,0.799,-0.485,2.197,1.282,0.092,80.0,5159.0,1.0
1063,30.339,21.579,21.563,12.129,15.57,11.501,8.036,9.737,-0.096,0.799,-0.488,2.075,1.099,0.061,80.0,5160.0,1.0
1064,30.735,21.887,21.587,14.164,15.658,10.779,8.886,10.992,-0.098,0.801,-0.485,1.923,1.068,0.122,80.0,5161.0,1.0
1065,28.765,19.819,19.634,14.18,14.875,9.581,9.749,12.15,-0.097,0.804,-0.488,1.923,1.099,-0.031,80.0,5162.0,1.0
