EEG 1,EEG 2,EEG 3,EEG 4,EEG 5,EEG 6,EEG 7,EEG 8,Accelerometer X,Accelerometer Y,Accelerometer Z,Gyroscope X,Gyroscope Y,Gyroscope Z,Battery Level,Counter,Validation Indicator
4594.135,-3322.482,-571.087,-798.397,1439.334,3327.472,1797.939,310.825,-0.161,0.980,0.061,0.000,0.000,0.000,93.333,1.000,1.000
32405.255,-25928.291,-7815.367,-7153.035,9340.770,23237.346,11771.075,1184.775,-0.156,0.989,0.049,0.000,0.000,0.000,93.333,2.000,1.000
108424.139,-93873.325,-44220.198,-25188.627,29747.395,79166.528,34794.792,3057.787,-0.156,0.991,0.048,0.000,0.000,0.000,93.333,3.000,1.000
234411.944,-209968.856,-147487.169,-52927.510,64699.116,176382.191,58907.065,2797.436,-0.156,0.992,0.044,0.000,0.000,0.000,93.333,4.000,1.000
376901.870,-321628.813,-336926.773,-73199.968,115138.429,294655.930,59958.529,-7240.633,-0.154,0.994,0.043,0.000,0.000,0.000,93.333,5.000,1.000
490400.401,-344993.531,-571587.167,-62300.426,183471.123,399185.664,33412.220,-30011.852,-0.153,0.994,0.047,2.563,1.678,-2.808,93.333,6.000,1.000
546443.171,-232566.230,-747611.525,-6635.455,266669.987,462361.279,11582.797,-49896.902,-0.153,0.994,0.044,3.204,2.502,-2.411,93.333,7.000,1.000
544475.328,-12508.876,-750868.607,88743.238,351751.178,479528.380,36681.496,-36540.861,-0.153,0.994,0.040,1.587,1.740,-0.275,93.333,8.000,1.000
504116.832,235809.267,-534726.359,205265.913,422393.811,466525.055,121764.390,29962.256,-0.152,0.995,0.037,0.977,1.434,0.458,93.333,9.000,1.000
448021.602,436007.221,-160318.604,320168.909,467917.951,444048.280,244656.737,139781.527,-0.151,0.993,0.041,0.732,1.404,0.732,93.333,10.000,1.000
387733.234,549995.023,239965.093,412135.300,486203.151,425346.897,369419.397,260874.161,-0.152,0.993,0.038,0.732,1.373,0.732,93.333,11.000,1.000
322287.607,580458.338,542395.783,466646.028,481919.208,413819.035,465333.995,362468.629,-0.151,0.994,0.041,0.702,1.373,0.702,93.333,12.000,1.000
247509.950,554954.722,689443.974,481244.427,463428.409,406561.473,515942.935,429812.243,-0.152,0.992,0.041,0.702,1.404,0.793,93.333,13.000,1.000
164654.284,507087.882,696053.731,465323.710,439443.883,399037.409,521909.918,462588.445,-0.151,0.992,0.042,0.671,1.404,0.732,93.333,14.000,1.000
81392.745,462582.893,620318.332,434193.741,416354.469,388240.743,497083.126,467867.064,-0.150,0.990,0.042,0.702,1.526,0.610,93.333,15.000,1.000
7243.924,433411.345,525968.421,401915.698,397117.727,373669.263,459852.084,455412.326,-0.150,0.987,0.039,0.671,1.495,0.549,93.333,16.000,1.000
-51401.249,419336.615,455911.852,376739.672,381730.204,356672.090,425061.293,434749.466,-0.149,0.988,0.040,0.732,1.495,0.580,93.333,17.000,1.000
-93436.173,412816.320,424005.468,360377.008,368584.095,339182.842,399959.146,413012.197,-0.148,0.990,0.040,0.885,1.617,0.549,93.333,18.000,1.000
-121889.978,403102.550,421728.580,350105.832,355866.531,322675.115,384584.227,393979.785,-0.149,0.988,0.038,0.916,1.648,0.519,93.333,19.000,1.000
-140959.400,380163.029,431268.553,341800.765,342437.704,307721.633,374844.177,378414.202,-0.148,0.990,0.041,1.129,1.770,0.366,93.333,20.000,1.000
-153592.947,339944.789,437059.168,332286.217,328048.559,294112.516,366005.255,365237.637,-0.148,0.989,0.040,1.160,1.770,0.336,93.333,21.000,1.000
-161085.291,286970.502,431582.822,320311.566,313083.554,281259.899,354996.483,352856.391,-0.147,0.988,0.040,1.221,1.923,0.366,93.333,22.000,1.000
-164076.975,231045.564,415334.639,306301.773,298135.431,268600.832,341051.142,340092.890,-0.147,0.987,0.039,1.343,1.923,0.336,93.333,23.000,1.000
-163473.682,181397.611,393355.294,291490.950,283663.610,255826.684,325096.473,326530.420,-0.152,0.984,0.039,1.526,2.075,0.305,93.333,24.000,1.000
-160607.944,142782.130,371219.018,277061.386,269805.240,242910.871,308664.598,312381.452,-0.153,0.985,0.037,1.801,2.106,0.214,93.333,25.000,1.000
-156887.182,114935.801,352420.541,263654.856,256128.789,230004.611,292986.590,298137.290,-0.154,0.988,0.037,1.923,2.197,0.092,93.333,26.000,1.000
-153376.976,94403.223,337714.814,251314.550,241267.417,217298.775,278583.841,284240.579,-0.156,0.991,0.039,1.892,2.167,0.000,93.333,27.000,1.000
-150578.775,77066.001,325900.843,239707.718,223130.121,204924.774,265330.117,270912.343,-0.154,0.995,0.039,1.862,2.136,-0.092,93.333,28.000,1.000
-148464.620,60032.194,315127.701,228419.560,200138.103,192921.144,252766.653,258144.948,-0.154,0.995,0.037,1.740,2.106,-0.214,93.333,29.000,1.000
-146707.225,42283.454,303950.545,217163.337,172444.715,181253.521,240343.037,245796.479,-0.156,0.998,0.038,1.770,2.075,-0.214,93.333,30.000,1.000
-144955.742,24249.058,291784.743,205850.446,141930.886,169857.804,227278.383,233704.741,-0.153,1.001,0.036,1.678,2.075,-0.275,93.333,31.000,1.000
-143003.501,6939.413,278807.079,194547.127,111168.053,158678.594,212291.846,221763.897,-0.152,0.998,0.037,1.526,2.014,-0.244,93.333,32.000,1.000
-140806.420,-8774.756,265570.385,183382.294,82307.027,147688.332,193943.931,209945.935,-0.153,0.997,0.039,1.404,1.953,-0.275,93.333,33.000,1.000
-138425.700,-22509.609,252613.010,172465.832,56482.177,136886.740,171582.623,198280.077,-0.154,0.998,0.037,1.190,2.045,-0.305,93.333,34.000,1.000
-135967.672,-34388.672,240232.741,161848.159,33765.835,126287.467,145920.988,186815.991,-0.155,1.000,0.036,1.099,1.831,-0.214,93.333,35.000,1.000
-133530.459,-44848.685,228455.503,151521.689,13504.530,115787.093,118702.551,175593.143,-0.154,0.998,0.039,1.099,1.892,-0.214,93.333,36.000,1.000
-131158.428,-54359.429,217133.375,141446.586,-5155.666,104816.227,91882.583,164626.944,-0.155,0.997,0.037,1.038,1.862,-0.275,93.333,37.000,1.000
-128835.214,-63220.628,206077.462,131579.925,-22822.680,92209.537,66926.884,153910.841,-0.154,0.998,0.039,1.007,1.831,-0.092,93.333,38.000,1.000
-126522.515,-71534.351,195154.517,121894.367,-39720.843,76806.430,44471.691,143426.978,-0.154,0.998,0.037,1.007,1.740,-0.092,93.333,39.000,1.000
-124197.465,-79291.246,184320.544,112382.586,-55824.116,58310.823,24361.812,133157.399,-0.154,0.994,0.038,1.038,1.678,0.031,93.333,40.000,1.000
-121852.002,-86445.724,173602.518,103051.328,-71022.282,37565.632,5998.175,123090.756,-0.155,0.993,0.041,1.099,1.709,0.122,93.333,41.000,1.000
-119478.679,-92949.708,163057.059,93911.841,-85197.215,16118.351,-11219.305,113223.475,-0.154,0.989,0.040,1.129,1.648,0.031,93.333,42.000,1.000
-117076.775,-98789.036,152733.153,84972.261,-98278.245,-4507.081,-27635.633,103557.114,-0.156,0.988,0.036,1.068,1.587,0.214,93.333,43.000,1.000
-114662.859,-104015.272,142653.244,76234.419,-110308.799,-23380.288,-43353.303,94094.603,-0.155,0.987,0.034,1.099,1.526,0.244,93.333,44.000,1.000
-112256.955,-108722.155,132813.390,67694.659,-121434.222,-40310.519,-58344.840,84837.421,-0.156,0.987,0.037,1.312,1.587,0.336,93.333,45.000,1.000
-109861.778,-112984.829,123194.671,59346.675,-131794.089,-55613.385,-72519.019,75784.544,-0.156,0.990,0.041,1.465,1.556,0.427,93.333,46.000,1.000
-107468.741,-116838.964,113776.408,51184.349,-141452.438,-69765.741,-85775.002,66889.184,-0.156,0.991,0.040,1.556,1.495,0.488,93.333,47.000,1.000
-105078.217,-120311.316,104544.788,43203.358,-150439.563,-83168.410,-98087.470,57888.001,-0.156,0.992,0.039,1.587,1.434,0.549,93.333,48.000,1.000
-102698.184,-123435.337,95495.053,35401.370,-158802.865,-96044.588,-109539.000,48134.545,-0.156,0.994,0.038,1.587,1.343,0.488,93.333,49.000,1.000
-100327.217,-126228.980,86628.922,27777.309,-166578.833,-108423.346,-120243.488,36801.864,-0.155,0.994,0.040,1.617,1.343,0.397,93.333,50.000,1.000
-97956.130,-128688.925,77950.289,20330.387,-173761.227,-120201.647,-130264.877,23424.629,-0.155,0.994,0.041,1.587,1.251,0.427,93.333,51.000,1.000
-95586.024,-130823.392,69461.730,13059.408,-180346.420,-131266.553,-139635.023,8236.179,-0.156,0.993,0.038,1.648,1.221,0.549,93.333,52.000,1.000
-93229.021,-132669.055,61163.005,5962.537,-186383.387,-141585.176,-148404.625,-7969.452,-0.156,0.994,0.038,1.587,1.190,0.610,93.333,53.000,1.000
-90889.570,-134261.320,53051.369,-962.560,-191936.789,-151194.871,-156622.630,-24200.070,-0.155,0.991,0.040,1.617,1.129,0.580,93.333,54.000,1.000
-88559.327,-135608.257,45122.848,-7718.412,-197025.736,-160147.770,-164290.007,-39604.798,-0.155,0.991,0.040,1.648,1.038,0.427,93.333,55.000,1.000
-86233.987,-136710.442,37373.524,-14307.471,-201643.906,-168495.264,-171388.319,-53727.022,-0.154,0.991,0.039,1.740,0.916,0.336,93.333,56.000,1.000
-83922.247,-137589.210,29800.283,-20731.982,-205820.174,-176301.479,-177944.376,-66581.450,-0.153,0.993,0.041,1.770,0.916,0.397,93.333,57.000,1.000
-81632.626,-138275.867,22400.920,-26993.985,-209610.184,-183626.256,-184020.985,-78476.257,-0.151,0.995,0.040,1.678,0.977,0.336,93.333,58.000,1.000
-79362.575,-138785.139,15173.817,-33095.400,-213038.459,-190491.383,-189653.120,-89723.309,-0.151,0.993,0.039,1.556,1.068,0.275,93.333,59.000,1.000
-77107.516,-139119.064,8099.381,-39054.695,-216097.736,-196890.111,-194841.438,-100492.701,-0.149,0.992,0.039,1.526,0.977,0.305,93.333,60.000,1.000
-74870.686,-139288.306,1081.373,-44962.114,-218802.162,-202829.147,-199604.852,-110851.495,-0.149,0.992,0.038,1.526,1.038,0.305,93.333,61.000,1.000
-72655.802,-139309.419,-6086.468,-51015.549,-221193.011,-208336.427,-203988.365,-120811.688,-0.150,0.992,0.038,1.526,1.068,0.183,93.333,62.000,1.000
-70458.533,-139186.567,-13628.684,-57438.869,-223288.590,-213431.022,-208012.849,-130316.543,-0.149,0.993,0.037,1.556,1.190,0.214,93.333,63.000,1.000
-68274.410,-138916.102,-21629.124,-64327.101,-225075.352,-218116.706,-211664.939,-139272.219,-0.149,0.991,0.039,1.587,1.221,0.122,93.333,64.000,1.000
-66108.610,-138507.502,-29961.300,-71568.996,-226558.578,-222410.272,-214949.295,-147648.067,-0.150,0.990,0.038,1.526,1.251,0.061,93.333,65.000,1.000
-63968.542,-137981.439,-38353.810,-78902.646,-227778.220,-226347.646,-217907.235,-155506.359,-0.152,0.989,0.039,1.556,1.190,0.000,93.333,66.000,1.000
-61852.075,-137347.615,-46518.639,-86040.108,-228760.239,-229952.644,-220567.630,-162914.047,-0.151,0.989,0.035,1.648,1.312,-0.031,93.333,67.000,1.000
-59752.915,-136602.786,-54258.632,-92777.275,-229494.122,-233224.986,-222921.855,-169882.213,-0.152,0.990,0.036,1.617,1.343,-0.031,93.333,68.000,1.000
-57673.545,-135752.255,-61509.402,-99040.782,-229978.110,-236170.065,-224968.987,-176418.591,-0.151,0.988,0.035,1.709,1.373,-0.214,93.333,69.000,1.000
-55622.230,-134814.762,-68314.218,-104867.136,-230247.173,-238815.870,-226745.965,-182574.004,-0.150,0.988,0.035,1.648,1.404,-0.183,93.333,70.000,1.000
-53599.651,-133801.442,-74763.092,-110343.597,-230330.942,-241186.097,-228285.482,-188388.028,-0.146,0.988,0.033,1.648,1.556,-0.336,93.333,71.000,1.000
-51599.495,-132707.444,-80937.527,-115552.380,-230219.462,-243279.646,-229579.454,-193838.523,-0.146,0.989,0.034,1.648,1.648,-0.336,93.333,72.000,1.000
-49621.310,-131531.258,-86884.523,-120542.891,-229900.182,-245094.480,-230615.736,-198897.378,-0.146,0.991,0.036,1.648,1.678,-0.275,93.333,73.000,1.000
-47671.482,-130285.814,-92616.448,-125329.840,-229397.337,-246651.459,-231419.658,-203596.207,-0.146,0.993,0.035,1.587,1.740,-0.183,93.333,74.000,1.000
-45750.975,-128981.834,-98122.920,-129904.135,-228741.607,-247974.693,-232024.200,-207984.731,-0.145,0.997,0.033,1.556,1.862,-0.183,93.333,75.000,1.000
-43853.357,-127615.847,-103386.581,-134248.520,-227928.284,-249066.174,-232426.100,-212061.373,-0.146,0.999,0.035,1.526,2.106,-0.153,93.333,76.000,1.000
-41976.946,-126185.687,-108397.816,-138352.715,-226942.439,-249922.143,-232610.445,-215803.800,-0.147,1.000,0.035,1.282,2.258,-0.061,93.333,77.000,1.000
-40128.254,-124704.078,-113161.114,-142220.358,-225803.358,-250559.953,-232597.314,-219238.731,-0.147,1.000,0.035,1.190,2.380,-0.061,93.333,78.000,1.000
-38310.104,-123183.710,-117690.170,-145864.527,-224544.066,-251004.196,-232422.254,-222417.338,-0.147,1.002,0.034,0.977,2.563,0.031,93.333,79.000,1.000
-36516.525,-121620.640,-121999.375,-149299.339,-223163.485,-251257.241,-232086.172,-225340.741,-0.146,1.002,0.036,0.763,2.686,0.000,93.333,80.000,1.000
-34743.949,-120007.108,-126100.660,-152536.738,-221640.846,-251309.506,-231568.301,-227975.521,-0.146,1.002,0.036,0.732,2.899,0.031,93.333,81.000,1.000
-32997.871,-118350.599,-130004.385,-155587.250,-219985.794,-251171.003,-230878.288,-230331.779,-0.147,1.003,0.035,0.519,3.082,0.031,93.333,82.000,1.000
-31282.882,-116664.817,-133718.386,-158458.884,-218231.202,-250866.309,-230050.754,-232459.704,-0.147,1.002,0.033,0.427,3.143,0.214,93.333,83.000,1.000
-29595.125,-114950.856,-137246.502,-161155.562,-216383.430,-250403.745,-229094.029,-234373.138,-0.147,1.000,0.035,0.366,3.174,0.275,93.333,84.000,1.000
-27931.064,-113203.581,-140591.248,-163679.778,-214423.422,-249776.490,-227989.465,-236043.386,-0.149,0.999,0.035,0.122,3.326,0.153,93.333,85.000,1.000
-26295.506,-111429.566,-143757.886,-166036.701,-212355.410,-248991.882,-226741.427,-237472.831,-0.149,0.998,0.033,0.061,3.448,0.183,93.333,86.000,1.000
-24693.350,-109641.407,-146753.741,-168233.526,-210210.722,-248072.153,-225382.865,-238708.394,-0.148,0.997,0.033,-0.122,3.540,0.183,93.333,87.000,1.000
-23120.330,-107838.388,-149584.386,-170275.706,-207998.960,-247024.455,-223925.228,-239768.885,-0.149,0.998,0.033,-0.183,3.632,0.092,93.333,88.000,1.000
-21570.317,-106010.168,-152253.386,-172166.724,-205698.210,-245836.926,-222346.707,-240622.848,-0.151,0.998,0.035,-0.122,3.784,0.031,93.333,89.000,1.000
-20045.903,-104157.803,-154765.571,-173911.349,-203303.369,-244509.600,-220641.761,-241259.467,-0.151,0.997,0.033,-0.305,3.754,0.000,93.333,90.000,1.000
-18552.659,-102293.890,-157127.506,-175516.098,-200843.003,-243063.715,-218840.165,-241720.703,-0.152,0.996,0.035,-0.397,3.784,-0.031,93.333,91.000,1.000
-17087.934,-100422.127,-159344.335,-176986.085,-198333.747,-241512.611,-216960.517,-242034.991,-0.154,0.993,0.032,-0.458,3.906,0.031,93.333,92.000,1.000
-15645.197,-98534.386,-161419.016,-178324.225,-195757.415,-239848.142,-214984.976,-242176.430,-0.155,0.991,0.033,-0.549,3.845,0.031,93.333,93.000,1.000
-14225.962,-96630.237,-163355.347,-179534.243,-193103.045,-238066.866,-212901.823,-242125.296,-0.154,0.990,0.035,-0.641,3.845,-0.031,93.333,94.000,1.000
-12837.338,-94722.271,-165159.131,-180621.864,-190395.151,-236186.521,-210736.243,-241916.762,-0.154,0.987,0.034,-0.671,3.845,-0.092,93.333,95.000,1.000
-11479.631,-92817.097,-166835.329,-181591.988,-187655.449,-234222.007,-208512.084,-241587.023,-0.154,0.987,0.034,-0.641,3.845,-0.092,93.333,96.000,1.000
-10146.277,-90906.724,-168386.377,-182447.014,-184869.111,-232165.630,-206215.723,-241117.176,-0.154,0.984,0.032,-0.549,3.906,-0.122,93.333,97.000,1.000
-8835.616,-88985.800,-169814.676,-183189.310,-182018.208,-230008.615,-203829.089,-240479.169,-0.154,0.986,0.037,-0.580,3.967,-0.183,93.333,98.000,1.000
-7552.729,-87062.789,-171124.719,-183823.326,-179120.071,-227764.246,-201370.175,-239697.823,-0.155,0.990,0.035,-0.458,3.967,-0.092,93.333,99.000,1.000
-6298.690,-85145.056,-172321.134,-184353.624,-176199.659,-225450.001,-198865.823,-238813.471,-0.156,0.992,0.037,-0.427,3.845,-0.153,93.333,100.000,1.000
-5068.227,-83226.935,-173406.577,-184782.786,-173248.766,-223062.807,-196308.561,-237816.077,-0.155,0.995,0.036,-0.519,3.784,-0.122,93.333,101.000,1.000
-3860.460,-81303.814,-174383.536,-185113.215,-170248.930,-220593.963,-193678.777,-236674.707,-0.155,0.994,0.035,-0.702,3.937,-0.153,93.333,102.000,1.000
-2681.706,-79384.859,-175256.333,-185349.142,-167213.908,-218054.582,-190989.710,-235406.136,-0.153,0.993,0.038,-0.702,3.876,-0.061,93.333,103.000,1.000
-1533.840,-77478.625,-176029.057,-185494.577,-164170.095,-215462.106,-188269.393,-234052.421,-0.153,0.991,0.035,-0.793,3.967,0.000,93.333,104.000,1.000
-409.783,-75577.866,-176703.186,-185550.972,-161110.887,-212812.766,-185513.073,-232609.123,-0.154,0.990,0.033,-0.824,4.059,-0.031,93.333,105.000,1.000
694.879,-73672.774,-177279.747,-185519.356,-158011.297,-210092.534,-182696.112,-231039.588,-0.155,0.990,0.032,-0.854,3.876,-0.153,93.333,106.000,1.000
1775.294,-71769.028,-177762.408,-185403.353,-154876.783,-207307.267,-179824.138,-229349.713,-0.156,0.990,0.036,-0.793,3.845,0.031,93.333,107.000,1.000
2827.528,-69878.033,-178155.918,-185207.602,-151736.154,-204476.771,-176927.368,-227584.254,-0.154,0.991,0.035,-0.824,3.845,-0.092,93.333,108.000,1.000
3856.126,-67997.993,-178462.679,-184934.387,-148592.320,-201604.292,-174009.863,-225751.715,-0.155,0.992,0.036,-0.793,3.876,-0.153,93.333,109.000,1.000
4865.050,-66120.366,-178683.544,-184584.486,-145422.227,-198677.613,-171047.852,-223817.271,-0.154,0.992,0.040,-0.732,3.906,-0.031,93.333,110.000,1.000
5849.353,-64248.560,-178821.178,-184160.513,-142225.016,-195698.566,-168039.492,-221775.733,-0.155,0.996,0.037,-0.793,3.937,0.092,93.333,111.000,1.000
6803.567,-62393.549,-178879.765,-183666.596,-139027.977,-192685.324,-165013.025,-219667.839,-0.155,0.998,0.038,-0.977,3.998,0.275,93.333,112.000,1.000
7731.654,-60554.541,-178861.690,-183105.069,-135839.160,-189643.126,-161978.194,-217509.798,-0.155,0.998,0.040,-1.099,4.028,0.366,93.333,113.000,1.000
8640.346,-58720.738,-178767.339,-182476.283,-132635.227,-186558.264,-158911.691,-215268.290,-0.155,0.996,0.038,-1.160,4.028,0.275,93.333,114.000,1.000
9528.054,-56891.415,-178598.348,-181781.846,-129407.622,-183427.171,-155804.100,-212928.143,-0.157,0.995,0.038,-1.343,4.150,0.366,93.333,115.000,1.000
10389.233,-55077.809,-178358.426,-181025.426,-126181.539,-180267.228,-152681.204,-210526.693,-0.156,0.993,0.040,-1.343,4.150,0.366,93.333,116.000,1.000
11225.497,-53283.857,-178050.475,-180209.866,-122972.744,-177089.718,-149560.386,-208090.777,-0.155,0.992,0.038,-1.251,4.150,0.366,93.333,117.000,1.000
12042.780,-51501.420,-177675.460,-179336.067,-119762.754,-173885.137,-146423.701,-205593.838,-0.153,0.993,0.038,-1.343,4.272,0.397,93.333,118.000,1.000
12840.294,-49727.892,-177234.914,-178405.495,-116537.798,-170647.132,-143257.130,-203012.486,-0.153,0.993,0.037,-1.404,4.303,0.397,93.333,119.000,1.000
13612.519,-47972.109,-176731.962,-177421.170,-113317.395,-167388.818,-140081.139,-200375.579,-0.153,0.995,0.042,-1.495,4.364,0.549,93.333,120.000,1.000
14360.725,-46237.268,-176168.738,-176385.101,-110118.861,-164120.500,-136914.651,-197713.765,-0.156,0.996,0.043,-1.465,4.486,0.519,93.333,121.000,1.000
15091.833,-44513.955,-175545.250,-175297.207,-106925.531,-160831.790,-133740.774,-195005.182,-0.157,0.997,0.044,-1.465,4.639,0.519,93.333,122.000,1.000
15806.088,-42797.579,-174862.185,-174158.132,-103719.636,-157513.204,-130539.834,-192220.303,-0.155,0.997,0.044,-1.434,4.730,0.488,93.333,123.000,1.000
16496.542,-41097.705,-174122.638,-172970.933,-100518.428,-154177.294,-127328.516,-189382.202,-0.155,0.998,0.045,-1.556,4.669,0.427,93.333,124.000,1.000
17161.540,-39421.371,-173329.599,-171738.550,-97345.275,-150839.341,-124131.758,-186528.935,-0.154,0.998,0.042,-1.587,4.791,0.610,93.333,125.000,1.000
17807.205,-37761.374,-172483.829,-170461.710,-94189.191,-147493.171,-120939.717,-183647.921,-0.151,1.000,0.045,-1.617,4.913,0.519,93.333,126.000,1.000
18435.842,-36111.070,-171585.977,-169141.021,-91028.054,-144126.748,-117729.812,-180704.634,-0.151,0.999,0.046,-1.709,4.944,0.549,93.333,127.000,1.000
19042.188,-34477.672,-170638.852,-167779.170,-87871.971,-140748.161,-114512.251,-177711.671,-0.151,0.995,0.042,-1.801,5.005,0.580,93.333,128.000,1.000
19624.396,-32869.030,-169645.572,-166379.050,-84745.950,-137373.635,-111313.920,-174708.945,-0.154,0.993,0.045,-1.831,5.157,0.671,93.333,129.000,1.000
20189.126,-31278.288,-168606.956,-164941.237,-81644.226,-133999.901,-108130.539,-171691.873,-0.152,0.992,0.046,-1.801,5.096,0.702,93.333,130.000,1.000
20740.920,-29695.154,-167522.886,-163465.474,-78541.668,-130612.446,-104936.402,-168622.067,-0.154,0.990,0.043,-1.648,5.096,0.732,93.333,131.000,1.000
21274.955,-28123.829,-166395.114,-161953.506,-75441.606,-127214.679,-101734.002,-165501.571,-0.156,0.990,0.046,-1.587,5.249,0.671,93.333,132.000,1.000
21786.207,-26575.115,-165226.292,-160408.090,-72371.179,-123823.879,-98551.233,-162372.563,-0.156,0.989,0.050,-1.617,5.280,0.671,93.333,133.000,1.000
22277.952,-25047.578,-164017.065,-158830.016,-69332.882,-120441.534,-95391.501,-159243.106,-0.153,0.987,0.049,-1.587,5.310,0.671,93.333,134.000,1.000
22754.322,-23532.273,-162766.850,-157218.798,-66302.536,-117053.407,-92230.022,-156077.200,-0.154,0.987,0.045,-1.404,5.402,0.519,93.333,135.000,1.000
23211.878,-22031.045,-161477.062,-155575.825,-63276.604,-113658.782,-89062.739,-152866.604,-0.153,0.988,0.046,-1.282,5.402,0.427,93.333,136.000,1.000
23646.636,-20553.386,-160150.792,-153904.077,-60279.627,-110273.842,-85915.752,-149649.300,-0.154,0.987,0.048,-1.190,5.524,0.427,93.333,137.000,1.000
24063.113,-19098.006,-158789.446,-152204.845,-57318.252,-106903.132,-82797.691,-146440.630,-0.154,0.989,0.050,-1.129,5.524,0.397,93.333,138.000,1.000
24467.539,-17654.819,-157392.501,-150477.503,-54369.239,-103533.260,-79684.961,-143207.590,-0.157,0.991,0.051,-1.068,5.493,0.458,93.333,139.000,1.000
24857.067,-16225.033,-155960.843,-148722.799,-51425.399,-100161.479,-76568.513,-139935.879,-0.156,0.990,0.050,-1.007,5.493,0.458,93.333,140.000,1.000
25225.032,-14822.145,-154497.569,-146943.673,-48513.886,-96805.811,-73475.020,-136664.226,-0.158,0.987,0.051,-0.946,5.310,0.519,93.333,141.000,1.000
25573.180,-13450.568,-153004.737,-145142.115,-45651.028,-93476.532,-70421.828,-133419.700,-0.157,0.988,0.051,-0.702,5.219,0.610,93.333,142.000,1.000
25908.806,-12099.629,-151481.929,-143317.772,-42815.632,-90160.548,-67388.104,-130172.319,-0.160,0.986,0.052,-0.610,5.188,0.519,93.333,143.000,1.000
26232.258,-10762.708,-149929.113,-141470.689,-39989.083,-86846.880,-64354.795,-126892.505,-0.162,0.987,0.051,-0.488,5.096,0.549,93.333,144.000,1.000
26537.676,-9445.992,-148348.358,-139602.888,-37187.543,-83545.956,-61338.769,-123604.685,-0.162,0.990,0.049,-0.488,5.005,0.671,93.333,145.000,1.000
26824.925,-8152.391,-146741.346,-137715.893,-34428.100,-80268.233,-58358.967,-120339.212,-0.163,0.991,0.051,-0.427,4.730,0.702,93.333,146.000,1.000
27099.976,-6873.094,-145107.775,-135809.247,-31694.720,-77004.070,-55400.125,-117075.040,-0.163,0.992,0.052,-0.458,4.639,0.763,93.333,147.000,1.000
27363.313,-5603.543,-143447.909,-133883.097,-28968.681,-73743.122,-52442.814,-113781.049,-0.164,0.993,0.052,-0.305,4.425,0.946,93.333,148.000,1.000
27608.864,-4353.064,-141764.338,-131939.932,-26265.487,-70496.015,-49502.509,-110477.370,-0.165,0.993,0.051,-0.305,4.120,0.946,93.333,149.000,1.000
27835.983,-3128.724,-140059.362,-129981.982,-23607.701,-67276.705,-46602.953,-107200.467,-0.167,0.994,0.052,-0.244,3.906,0.946,93.333,150.000,1.000
28052.047,-1922.673,-138332.701,-128008.988,-20983.745,-64078.117,-43732.818,-103936.781,-0.167,0.995,0.050,-0.275,3.723,1.099,93.333,151.000,1.000
28260.467,-726.188,-136583.669,-126020.308,-18369.589,-60886.497,-40866.800,-100649.261,-0.167,0.995,0.052,-0.275,3.418,1.251,93.333,152.000,1.000
28455.931,455.527,-134813.795,-124017.434,-15773.089,-57707.807,-38012.334,-97347.557,-0.167,0.996,0.052,-0.275,3.143,1.343,93.333,153.000,1.000
28635.030,1614.392,-133025.251,-122002.442,-13218.757,-54557.285,-35195.401,-94071.057,-0.165,0.998,0.054,-0.305,2.838,1.312,93.333,154.000,1.000
28802.186,2754.743,-131218.222,-119975.443,-10702.027,-51432.026,-32412.474,-90816.889,-0.167,0.999,0.053,-0.427,2.563,1.404,93.333,155.000,1.000
28960.113,3883.947,-129392.239,-117935.915,-8198.974,-48318.064,-29638.706,-87547.973,-0.165,1.000,0.054,-0.458,2.319,1.495,93.333,156.000,1.000
29103.313,4996.260,-127549.033,-115885.486,-5713.360,-45218.771,-26876.978,-84266.207,-0.164,1.000,0.054,-0.519,2.045,1.587,93.333,157.000,1.000
29227.591,6081.294,-125691.364,-113826.763,-3272.273,-42150.890,-24155.439,-81013.165,-0.162,1.000,0.054,-0.549,1.892,1.617,93.333,158.000,1.000
29338.196,7142.254,-123819.706,-111760.107,-877.625,-39114.972,-21477.478,-77796.124,-0.160,0.999,0.053,-0.580,1.709,1.770,93.333,159.000,1.000
29441.123,8189.983,-121932.909,-109684.308,1496.081,-36095.464,-18817.382,-74577.400,-0.159,0.997,0.054,-0.671,1.465,2.014,93.333,160.000,1.000
29533.398,9223.526,-120031.703,-107600.002,3853.571,-33090.541,-16169.596,-71346.741,-0.157,0.997,0.056,-0.793,1.282,2.136,93.333,161.000,1.000
29610.038,10232.974,-118118.685,-105509.677,6170.159,-30116.232,-13559.335,-68141.468,-0.157,0.999,0.056,-0.732,1.129,2.228,93.333,162.000,1.000
29674.361,11218.894,-116194.920,-103414.369,8438.493,-27177.329,-10994.796,-64977.116,-0.156,0.996,0.055,-0.793,0.977,2.319,93.333,163.000,1.000
29732.286,12191.947,-114259.438,-101313.090,10683.022,-24259.379,-8450.731,-61818.900,-0.155,0.997,0.053,-0.793,0.824,2.289,93.333,164.000,1.000
29781.271,13153.201,-112312.512,-99205.887,12914.722,-21356.755,-5914.946,-58648.017,-0.153,0.994,0.053,-0.854,0.671,2.319,93.333,165.000,1.000
29814.907,14091.817,-110356.674,-97094.782,15110.338,-18484.465,-3411.438,-55499.047,-0.149,0.994,0.052,-0.854,0.610,2.502,93.333,166.000,1.000
29835.112,15004.803,-108395.759,-94980.989,17254.964,-15651.540,-956.844,-52398.047,-0.150,0.991,0.056,-0.763,0.580,2.563,93.333,167.000,1.000
29849.322,15902.466,-106446.466,-92863.967,19368.710,-12845.531,1468.865,-49316.396,-0.148,0.991,0.055,-0.702,0.610,2.625,93.333,168.000,1.000
29857.733,16789.697,-104564.214,-90744.296,21468.263,-10056.788,3883.429,-46226.025,-0.147,0.989,0.054,-0.702,0.641,2.594,93.333,169.000,1.000
29854.061,17658.036,-102840.580,-88624.666,23535.743,-7296.842,6268.489,-43152.463,-0.147,0.991,0.054,-0.641,0.580,2.563,93.333,170.000,1.000
29838.088,18502.892,-101343.441,-86506.481,25553.003,-4576.694,8603.961,-40127.047,-0.144,0.990,0.053,-0.610,0.671,2.594,93.333,171.000,1.000
29816.494,19333.195,-100063.658,-84387.936,27536.531,-1886.160,10905.756,-37128.549,-0.144,0.991,0.052,-0.549,0.671,2.625,93.333,172.000,1.000
29790.430,20154.932,-98937.972,-82267.177,29506.825,786.479,13195.873,-34124.071,-0.143,0.994,0.055,-0.702,0.793,2.594,93.333,173.000,1.000
29753.049,20959.061,-97900.073,-80145.309,31449.088,3430.974,15460.598,-31132.774,-0.141,0.994,0.055,-0.610,0.763,2.563,93.333,174.000,1.000
29701.638,21736.515,-96883.536,-78024.521,33339.046,6031.933,17675.015,-28192.689,-0.139,0.995,0.054,-0.610,0.854,2.533,93.333,175.000,1.000
29641.705,22492.797,-95809.602,-75905.303,35186.257,8595.077,19848.089,-25292.102,-0.141,0.997,0.054,-0.580,0.916,2.441,93.333,176.000,1.000
29575.777,23235.942,-94621.949,-73787.683,37014.706,11134.602,22004.309,-22393.439,-0.140,0.997,0.052,-0.702,1.038,2.441,93.333,177.000,1.000
29498.499,23961.616,-93326.569,-71673.345,38817.842,13646.147,24136.962,-19504.479,-0.141,0.997,0.054,-0.641,1.129,2.380,93.333,178.000,1.000
29407.419,24663.381,-91964.981,-69563.943,40572.322,16116.040,26220.978,-16663.563,-0.142,0.998,0.055,-0.671,1.160,2.289,93.333,179.000,1.000
29309.117,25347.725,-90557.743,-67458.681,42283.844,18548.567,28261.008,-13867.146,-0.143,0.999,0.055,-0.732,1.251,2.197,93.333,180.000,1.000
29208.822,26024.382,-89102.757,-65356.012,43978.322,20959.296,30284.122,-11075.945,-0.143,0.997,0.053,-0.732,1.221,2.075,93.333,181.000,1.000
29102.299,26689.308,-87612.480,-63256.726,45654.473,23346.556,32290.336,-8288.383,-0.144,0.996,0.053,-0.702,1.404,2.045,93.333,182.000,1.000
28984.626,27332.096,-86110.579,-61162.953,47286.495,25694.348,34253.201,-5543.893,-0.144,0.995,0.052,-0.793,1.373,1.923,93.333,183.000,1.000
28859.362,27954.477,-84594.122,-59075.062,48871.994,28001.429,36169.153,-2849.972,-0.144,0.996,0.054,-0.732,1.373,1.984,93.333,184.000,1.000
28731.316,28565.927,-83037.419,-56992.118,50435.709,30282.453,38063.303,-169.522,-0.143,0.997,0.053,-0.763,1.404,1.862,93.333,185.000,1.000
28597.057,29165.123,-81436.532,-54914.853,51982.324,32539.345,39941.167,2508.031,-0.143,0.998,0.054,-0.793,1.434,1.923,93.333,186.000,1.000
28451.316,29742.296,-79815.254,-52845.462,53486.915,34756.692,41777.102,5145.281,-0.143,0.996,0.053,-0.793,1.465,1.831,93.333,187.000,1.000
28297.282,30298.211,-78182.491,-50784.570,54941.176,36930.034,43561.576,7725.622,-0.143,0.997,0.056,-0.916,1.465,1.740,93.333,188.000,1.000
28141.355,30844.165,-76519.603,-48730.947,56369.315,39074.349,45319.243,10283.931,-0.143,0.996,0.056,-0.946,1.495,1.892,93.333,189.000,1.000
27981.912,31382.423,-74819.743,-46684.462,57783.783,41196.664,47063.782,12841.529,-0.143,0.997,0.054,-0.946,1.495,1.801,93.333,190.000,1.000
27812.909,31902.867,-73104.553,-44646.804,59163.096,43283.459,48773.230,15366.463,-0.145,0.998,0.055,-0.885,1.495,1.801,93.333,191.000,1.000
27635.577,32401.841,-71386.557,-42618.730,60492.826,45326.128,50431.457,17833.041,-0.144,1.001,0.055,-0.916,1.495,1.770,93.333,192.000,1.000
27456.206,32888.026,-69647.839,-40599.138,61792.734,47336.749,52057.918,20269.055,-0.142,1.003,0.050,-0.946,1.373,1.770,93.333,193.000,1.000
27274.204,33364.754,-67875.379,-38587.826,63079.186,49324.771,53670.198,22702.428,-0.142,1.003,0.053,-0.977,1.282,1.709,93.333,194.000,1.000
27083.167,33822.812,-66087.042,-36586.779,64333.855,51278.854,55250.315,25107.847,-0.140,1.001,0.054,-1.099,1.434,1.862,93.333,195.000,1.000
26883.164,34257.826,-64300.060,-34597.596,65537.897,53188.177,56778.406,27453.653,-0.139,1.000,0.055,-1.099,1.526,1.984,93.333,196.000,1.000
26680.854,34679.101,-62501.229,-32619.881,66707.190,55062.568,58270.109,29760.468,-0.139,0.996,0.054,-1.129,1.556,2.075,93.333,197.000,1.000
26476.848,35092.393,-60670.441,-30653.305,67861.900,56912.797,59746.614,32060.773,-0.141,0.994,0.054,-1.251,1.587,2.106,93.333,198.000,1.000
26264.084,35488.497,-58805.979,-28699.054,68987.257,58727.891,61193.177,34335.023,-0.142,0.992,0.052,-1.282,1.526,2.045,93.333,199.000,1.000
26040.693,35859.463,-56902.334,-26757.842,70059.745,60493.001,62584.567,36544.982,-0.143,0.991,0.050,-1.190,1.526,2.167,93.333,200.000,1.000
25813.677,36212.936,-54930.593,-24828.374,71090.730,62215.829,63931.190,38703.443,-0.144,0.991,0.052,-1.007,1.556,2.106,93.333,201.000,1.000
25586.689,36558.428,-52873.968,-22909.636,72106.396,63912.922,65260.476,40850.785,-0.143,0.993,0.053,-0.977,1.465,2.136,93.333,202.000,1.000
25354.647,36891.360,-50766.655,-21003.264,73101.261,65581.188,66568.328,42982.065,-0.140,0.995,0.053,-0.885,1.312,2.197,93.333,203.000,1.000
25114.915,37204.375,-48665.205,-19111.426,74051.494,67206.948,67830.712,45060.143,-0.142,0.997,0.052,-0.793,1.312,2.045,93.333,204.000,1.000
24873.667,37504.049,-46592.070,-17233.651,74962.299,68794.466,69052.508,47088.993,-0.142,0.998,0.053,-0.916,1.190,2.075,93.333,205.000,1.000
24635.193,37801.104,-44537.243,-15368.105,75860.263,70359.949,70261.144,49108.988,-0.141,0.998,0.055,-0.916,1.129,2.014,93.333,206.000,1.000
24393.988,38091.924,-42501.684,-13514.918,76744.863,71902.120,71456.372,51122.450,-0.142,0.997,0.054,-0.885,0.977,1.953,93.333,207.000,1.000
24144.434,38365.546,-40499.631,-11675.714,77589.678,73404.450,72610.105,53088.675,-0.142,0.997,0.057,-0.854,0.885,1.892,93.333,208.000,1.000
23890.414,38623.118,-38522.617,-9850.694,78391.038,74865.070,73717.133,54998.037,-0.142,0.996,0.056,-0.946,0.793,1.831,93.333,209.000,1.000
23637.501,38874.018,-36542.166,-8038.938,79173.515,76298.825,74802.760,56887.230,-0.142,0.999,0.055,-1.007,0.702,1.709,93.333,210.000,1.000
23382.731,39116.737,-34553.110,-6241.176,79942.783,77708.227,75874.080,58768.138,-0.141,0.999,0.053,-1.129,0.580,1.617,93.333,211.000,1.000
23121.131,39341.126,-32578.725,-4459.426,80674.955,79078.396,76906.785,60604.560,-0.139,1.000,0.054,-1.160,0.397,1.617,93.333,212.000,1.000
22856.284,39548.163,-30626.809,-2693.842,81362.667,80405.800,77892.132,62380.790,-0.138,0.998,0.054,-1.190,0.244,1.434,93.333,213.000,1.000
22594.389,39749.903,-28676.498,-942.607,82031.118,81706.664,78855.358,64133.209,-0.136,1.000,0.055,-1.312,0.183,1.373,93.333,214.000,1.000
22332.492,39948.996,-26718.652,794.719,82693.063,82988.590,79810.167,65884.696,-0.135,1.002,0.055,-1.434,0.153,1.373,93.333,215.000,1.000
22062.932,40135.111,-24773.765,2516.362,83325.962,84237.508,80733.749,67603.315,-0.135,1.000,0.052,-1.465,0.153,1.373,93.333,216.000,1.000
21786.167,40304.205,-22854.336,4221.328,83913.604,85443.654,81608.804,69261.622,-0.133,0.999,0.053,-1.373,0.122,1.343,93.333,217.000,1.000
21508.893,40464.651,-20942.347,5910.614,84474.824,86618.221,82454.435,70885.821,-0.135,0.998,0.056,-1.282,0.000,1.312,93.333,218.000,1.000
21231.631,40619.644,-19023.704,7584.568,85026.664,87770.517,83289.055,72503.936,-0.134,0.998,0.053,-1.251,0.031,1.343,93.333,219.000,1.000
20948.802,40759.599,-17115.012,9241.498,85551.702,88889.275,84095.301,74091.130,-0.133,0.995,0.056,-1.221,-0.031,1.312,93.333,220.000,1.000
20660.427,40879.043,-15232.817,10880.142,86030.647,89963.295,84852.491,75614.917,-0.135,0.993,0.054,-1.190,-0.092,1.282,93.333,221.000,1.000
20373.111,40986.628,-13363.029,12501.436,86478.915,91002.666,85575.661,77095.609,-0.136,0.993,0.059,-1.038,-0.153,1.282,93.333,222.000,1.000
20088.421,41089.719,-11487.557,14106.423,86918.678,92020.679,86288.202,78568.721,-0.137,0.994,0.060,-0.946,-0.092,1.190,93.333,223.000,1.000
19800.576,41182.082,-9618.182,15694.284,87338.523,93009.932,86979.250,80019.361,-0.138,0.992,0.058,-0.946,-0.214,1.099,93.333,224.000,1.000
19507.873,41257.199,-7774.305,17264.119,87715.976,93957.087,87625.344,81411.132,-0.135,0.991,0.057,-0.793,-0.305,1.160,93.333,225.000,1.000
19216.378,41321.721,-5946.466,18816.943,88060.448,94868.478,88235.410,82755.128,-0.137,0.992,0.060,-0.732,-0.366,0.946,93.333,226.000,1.000
18928.807,41383.234,-4114.512,20353.818,88395.774,95758.282,88834.204,84089.221,-0.138,0.992,0.062,-0.519,-0.458,0.977,93.333,227.000,1.000
18639.344,41435.274,-2286.551,21873.446,88715.049,96621.380,89415.085,85406.240,-0.140,0.995,0.065,-0.519,-0.641,0.885,93.333,228.000,1.000
18344.230,41468.697,-485.078,23373.911,88993.134,97442.419,89951.429,86666.315,-0.140,0.996,0.059,-0.549,-0.702,0.854,93.333,229.000,1.000
18048.438,41489.013,1294.377,24855.625,89234.029,98224.799,90446.301,87871.186,-0.139,0.996,0.060,-0.458,-0.763,0.763,93.333,230.000,1.000
17755.884,41507.172,3074.630,26320.130,89464.326,98985.314,90927.626,89061.692,-0.139,0.998,0.062,-0.458,-1.007,0.702,93.333,231.000,1.000
17461.401,41520.159,4853.852,27766.954,89684.332,99723.896,91397.433,90242.728,-0.140,0.999,0.060,-0.458,-1.099,0.671,93.333,232.000,1.000
17159.658,41516.839,6608.179,29194.276,89867.534,100424.185,91829.404,91375.239,-0.138,0.998,0.061,-0.458,-1.282,0.488,93.333,233.000,1.000
16854.898,41498.081,8335.172,30602.102,90009.239,101083.478,92218.981,92449.619,-0.135,0.998,0.062,-0.458,-1.495,0.488,93.333,234.000,1.000
16553.766,41474.494,10057.561,31992.094,90134.658,101716.981,92592.593,93503.595,-0.135,0.996,0.063,-0.458,-1.678,0.519,93.333,235.000,1.000
16254.511,41446.934,11780.865,33364.430,90252.843,102329.775,92959.113,94552.078,-0.132,0.997,0.067,-0.458,-1.678,0.458,93.333,236.000,1.000
15951.986,41406.221,13484.143,34717.533,90343.059,102909.393,93294.281,95560.697,-0.134,0.997,0.064,-0.397,-1.770,0.519,93.333,237.000,1.000
15648.200,41351.951,15160.596,36051.057,90398.234,103452.307,93586.844,96512.249,-0.133,0.996,0.061,-0.336,-1.831,0.580,93.333,238.000,1.000
15348.348,41294.521,16831.296,37366.455,90442.247,103973.383,93859.675,97440.811,-0.134,0.994,0.059,-0.183,-1.862,0.519,93.333,239.000,1.000
15050.272,41236.259,18505.981,38664.078,90486.951,104479.284,94126.457,98368.797,-0.130,0.993,0.059,-0.092,-1.892,0.519,93.333,240.000,1.000
14747.965,41167.240,20164.313,39942.335,90509.174,104955.497,94365.494,99264.667,-0.131,0.994,0.059,-0.092,-1.862,0.458,93.333,241.000,1.000
14442.929,41083.797,21792.594,41200.519,90491.733,105392.051,94560.002,100100.796,-0.132,0.996,0.060,-0.031,-1.892,0.458,93.333,242.000,1.000
14141.803,40994.927,23407.069,42439.936,90452.846,105800.622,94729.760,100903.490,-0.131,0.996,0.062,0.061,-1.801,0.397,93.333,243.000,1.000
13844.127,40904.377,25020.469,43661.120,90409.802,106191.441,94895.122,101701.758,-0.129,0.996,0.060,0.122,-1.862,0.366,93.333,244.000,1.000
13542.926,40802.168,26615.304,44862.378,90345.465,106553.241,95040.625,102471.089,-0.128,0.996,0.059,0.031,-1.709,0.305,93.333,245.000,1.000
13237.341,40682.188,28175.038,46042.545,90240.505,106873.810,95146.124,103178.310,-0.129,0.995,0.062,0.244,-1.678,0.244,93.333,246.000,1.000
12934.213,40553.661,29715.471,47203.023,90111.018,107163.128,95226.621,103844.607,-0.129,0.994,0.061,0.244,-1.617,0.183,93.333,247.000,1.000
12635.952,40425.168,31257.226,48345.361,89980.713,107436.230,95305.114,104509.067,-0.128,0.998,0.060,0.275,-1.587,0.122,93.333,248.000,1.000
12337.151,40290.710,32789.452,49468.712,89838.866,107687.818,95368.276,105160.104,-0.130,0.999,0.062,0.336,-1.526,0.092,93.333,249.000,1.000
12035.528,40143.064,34291.231,50571.698,89661.980,107905.379,95388.193,105761.380,-0.129,1.000,0.063,0.336,-1.526,0.153,93.333,250.000,1.000
11736.028,39988.515,35769.995,51655.025,89458.216,108094.865,95371.068,106321.834,-0.130,1.001,0.063,0.336,-1.434,0.000,93.333,251.000,1.000
11440.408,39834.987,37245.532,52719.957,89251.562,108269.672,95343.622,106877.889,-0.130,1.001,0.061,0.488,-1.373,-0.031,93.333,252.000,1.000
11142.611,39676.107,38710.797,53765.664,89036.029,108423.544,95303.931,107422.035,-0.131,1.000,0.063,0.488,-1.343,-0.183,93.333,253.000,1.000
10839.577,39501.696,40143.937,54790.532,88786.394,108539.462,95228.658,107913.500,-0.130,1.001,0.060,0.488,-1.282,-0.244,93.333,254.000,1.000
10537.663,39315.803,41549.102,55795.012,88505.687,108619.632,95121.396,108352.802,-0.130,0.997,0.061,0.336,-1.221,-0.275,93.333,255.000,1.000
10242.229,39129.121,42948.960,56780.656,88220.418,108681.599,95009.336,108781.262,-0.132,0.996,0.059,0.549,-1.190,-0.305,93.333,256.000,1.000
9949.038,38940.181,44342.295,57747.217,87932.248,108727.834,94893.311,109205.892,-0.130,0.996,0.061,0.641,-1.068,-0.244,93.333,257.000,1.000
9652.830,38740.003,45705.853,58693.291,87616.310,108744.653,94745.162,109588.914,-0.130,0.998,0.059,0.641,-0.946,-0.336,93.333,258.000,1.000
9356.753,38530.335,47036.993,59619.233,87268.804,108730.735,94558.574,109919.889,-0.130,0.997,0.060,0.702,-0.946,-0.427,93.333,259.000,1.000
9065.451,38320.308,48357.503,60526.729,86914.258,108700.471,94359.442,110234.472,-0.132,0.997,0.059,0.793,-0.916,-0.458,93.333,260.000,1.000
8775.650,38107.873,49671.846,61415.731,86558.885,108655.825,94157.107,110545.169,-0.133,0.999,0.061,0.854,-0.854,-0.519,93.333,261.000,1.000
8482.389,37881.961,50958.306,62284.503,86178.057,108580.718,93927.717,110815.304,-0.131,0.999,0.059,0.916,-0.793,-0.458,93.333,262.000,1.000
8189.146,37642.550,52209.487,63132.762,85762.054,108470.034,93660.016,111026.390,-0.130,1.000,0.061,0.824,-0.763,-0.427,93.333,263.000,1.000
7902.420,37401.407,53445.997,63962.060,85334.681,108339.605,93376.901,111213.196,-0.130,1.000,0.062,0.824,-0.702,-0.458,93.333,264.000,1.000
7620.292,37161.667,54677.639,64772.755,84909.765,108198.119,93092.395,111400.403,-0.130,1.000,0.061,0.854,-0.580,-0.458,93.333,265.000,1.000
7336.013,36913.742,55885.059,65563.311,84466.687,108032.661,92785.509,111558.677,-0.130,1.001,0.061,0.885,-0.488,-0.549,93.333,266.000,1.000
7050.116,36654.699,57056.491,66333.259,83990.515,107834.200,92440.873,111661.814,-0.130,1.001,0.061,0.885,-0.336,-0.458,93.333,267.000,1.000
6768.783,36394.649,58210.908,67084.306,83501.614,107615.220,92080.314,111737.899,-0.131,1.002,0.060,0.793,-0.305,-0.397,93.333,268.000,1.000
6491.804,36138.223,59363.977,67817.474,83019.266,107386.854,91725.469,111818.885,-0.132,1.002,0.060,0.641,-0.183,-0.305,93.333,269.000,1.000
6212.768,35875.916,60499.990,68531.552,82527.099,107138.657,91360.077,111882.925,-0.132,1.004,0.060,0.610,-0.244,-0.244,93.333,270.000,1.000
5931.225,35601.784,61601.987,69225.715,82004.834,106859.120,90961.669,111897.305,-0.132,1.006,0.061,0.519,-0.183,-0.183,93.333,271.000,1.000
5654.105,35324.701,62683.735,69901.360,81466.970,106558.551,90543.414,111881.451,-0.131,1.008,0.061,0.366,-0.031,-0.183,93.333,272.000,1.000
5383.659,35052.203,63763.834,70559.623,80936.187,106251.166,90128.564,111871.841,-0.129,1.006,0.067,0.214,0.092,-0.214,93.333,273.000,1.000
5114.306,34777.053,64830.617,71199.127,80401.553,105929.601,89706.434,111854.481,-0.129,1.006,0.067,-0.031,0.183,-0.092,93.333,274.000,1.000
4843.897,34491.415,65863.646,71818.213,79839.837,105579.405,89252.936,111791.535,-0.127,1.004,0.068,-0.214,0.183,-0.031,93.333,275.000,1.000
4577.836,34201.816,66871.544,72417.664,79259.765,105206.364,88777.004,111692.435,-0.126,1.002,0.066,-0.244,0.183,-0.031,93.333,276.000,1.000
4318.209,33916.924,67875.378,72999.075,78686.127,104825.683,88305.430,111596.604,-0.126,1.001,0.064,-0.336,0.305,0.092,93.333,277.000,1.000
4058.512,33631.049,68868.612,73562.069,78113.298,104433.441,87833.748,111500.061,-0.125,1.000,0.065,-0.336,0.458,0.122,93.333,278.000,1.000
3794.373,33334.108,69828.371,74105.463,77515.175,104013.712,87334.511,111362.908,-0.124,1.002,0.066,-0.427,0.580,0.183,93.333,279.000,1.000
3530.923,33029.539,70756.977,74629.971,76893.229,103568.079,86807.624,111183.350,-0.120,1.000,0.067,-0.458,0.702,0.244,93.333,280.000,1.000
3273.420,32726.888,71676.272,75137.172,76272.999,103112.392,86279.093,110999.667,-0.118,0.997,0.061,-0.580,0.977,0.214,93.333,281.000,1.000
3018.445,32423.051,72585.540,75626.592,75655.665,102647.007,85751.003,110816.763,-0.117,0.991,0.063,-0.549,1.160,0.336,93.333,282.000,1.000
2761.516,32107.397,73461.808,76096.505,75015.404,102156.324,85196.632,110595.389,-0.118,0.988,0.062,-0.549,1.373,0.366,93.333,283.000,1.000
2506.181,31781.257,74301.717,76547.121,74347.401,101638.352,84609.817,110324.528,-0.120,0.988,0.064,-0.397,1.648,0.366,93.333,284.000,1.000
2257.237,31455.251,75126.474,76980.281,73676.625,101108.724,84016.107,110041.433,-0.120,0.989,0.064,-0.244,1.770,0.183,93.333,285.000,1.000
2011.114,31129.596,75941.005,77396.292,73011.218,100571.673,83425.168,109761.854,-0.122,0.993,0.065,-0.061,1.923,0.122,93.333,286.000,1.000
1761.967,30794.350,76724.240,77793.770,72327.877,100012.385,82813.808,109450.983,-0.125,0.995,0.063,0.031,2.045,0.000,93.333,287.000,1.000
1512.407,30449.013,77468.968,78172.589,71616.453,99425.092,82171.244,109089.369,-0.126,0.996,0.067,-0.122,2.075,-0.183,93.333,288.000,1.000
1268.957,30104.725,78196.785,78534.333,70900.173,98824.549,81521.467,108710.595,-0.126,0.996,0.066,-0.061,2.167,-0.244,93.333,289.000,1.000
1030.539,29764.687,78919.816,78879.398,70193.386,98219.428,80880.125,108340.198,-0.125,0.998,0.066,-0.061,2.350,-0.275,93.333,290.000,1.000
791.081,29419.082,79620.051,79206.201,69475.622,97597.216,80226.046,107949.774,-0.122,0.999,0.067,-0.031,2.350,-0.427,93.333,291.000,1.000
551.250,29064.068,80284.541,79514.255,68730.742,96949.011,79540.942,107511.961,-0.123,0.999,0.067,-0.061,2.441,-0.549,93.333,292.000,1.000
317.506,28709.629,80930.539,79805.559,67978.355,96287.934,78843.716,107053.318,-0.124,0.998,0.067,0.031,2.533,-0.549,93.333,293.000,1.000
90.312,28361.677,81573.630,80081.601,67238.733,95626.339,78155.662,106605.999,-0.123,0.997,0.069,-0.031,2.563,-0.580,93.333,294.000,1.000
-136.458,28011.774,82198.850,80341.210,66496.587,94953.950,77461.911,106148.807,-0.124,0.998,0.067,0.061,2.594,-0.641,93.333,295.000,1.000
-363.884,27653.655,82789.401,80582.958,65731.275,94257.659,76741.339,105648.536,-0.125,0.998,0.066,0.061,2.625,-0.702,93.333,296.000,1.000
-586.007,27295.670,83359.599,80807.557,64956.947,93546.224,76008.887,105124.865,-0.126,0.995,0.066,0.031,2.686,-0.793,93.333,297.000,1.000
-801.295,26945.792,83930.168,81016.035,64197.477,92834.060,75290.664,104617.245,-0.124,0.996,0.067,0.061,2.655,-0.793,93.333,298.000,1.000
-1016.043,26596.987,84491.244,81207.501,63442.845,92114.712,74577.649,104114.695,-0.123,0.996,0.067,0.122,2.686,-0.793,93.333,299.000,1.000
-1233.185,26240.160,85021.325,81380.962,62668.296,91373.726,73843.910,103578.456,-0.124,0.997,0.064,0.183,2.716,-0.854,93.333,300.000,1.000
-1447.386,25880.353,85525.917,81537.763,61879.939,90616.448,73094.546,103013.638,-0.125,0.996,0.068,0.244,2.777,-0.854,93.333,301.000,1.000
-1655.469,25525.957,86023.684,81679.780,61101.249,89858.138,72353.451,102455.259,-0.128,0.999,0.065,0.397,2.777,-0.824,93.333,302.000,1.000
-1862.426,25171.685,86507.533,81806.482,60326.533,89094.859,71614.715,101896.244,-0.128,0.998,0.065,0.458,2.686,-0.732,93.333,303.000,1.000
-2071.671,24807.846,86955.212,81916.248,59529.619,88310.072,70850.035,101294.730,-0.132,0.998,0.063,0.519,2.716,-0.671,93.333,304.000,1.000
-2277.928,24438.750,87370.297,82009.497,58712.064,87504.994,70059.128,100649.006,-0.134,0.998,0.061,0.488,2.563,-0.671,93.333,305.000,1.000
-2476.377,24075.543,87776.359,82087.860,57900.468,86696.079,69268.946,100000.363,-0.136,1.000,0.065,0.580,2.472,-0.641,93.333,306.000,1.000
-2671.202,23716.489,88174.172,82151.072,57097.501,85884.457,68483.046,99357.779,-0.134,1.000,0.065,0.671,2.289,-0.610,93.333,307.000,1.000
-2867.672,23351.390,88541.340,82197.591,56278.188,85054.785,67675.902,98684.122,-0.135,1.002,0.066,0.671,2.075,-0.671,93.333,308.000,1.000
-3062.650,22981.698,88874.893,82227.821,55438.252,84205.551,66842.559,97968.395,-0.136,1.001,0.065,0.763,1.923,-0.610,93.333,309.000,1.000
-3251.099,22618.654,89197.381,82243.770,54603.826,83353.655,66010.219,97248.091,-0.137,1.000,0.064,0.763,1.740,-0.671,93.333,310.000,1.000
-3436.248,22262.717,89515.075,82245.671,53783.923,82504.229,65189.378,96539.632,-0.138,0.999,0.064,0.854,1.465,-0.610,93.333,311.000,1.000
-3624.604,21901.481,89805.134,82231.779,52953.241,81641.165,64354.567,95806.229,-0.140,1.000,0.065,0.824,1.221,-0.671,93.333,312.000,1.000
-3815.237,21528.579,90054.073,82201.608,52096.172,80755.207,63489.557,95022.307,-0.141,1.000,0.065,0.946,0.946,-0.671,93.333,313.000,1.000
-4002.921,21148.640,90275.924,82156.714,51230.235,79857.648,62613.018,94214.507,-0.142,0.999,0.066,0.916,0.671,-0.641,93.333,314.000,1.000
-4188.529,20761.490,90478.695,82097.818,50367.315,78955.532,61738.742,93404.812,-0.140,0.999,0.063,0.946,0.458,-0.610,93.333,315.000,1.000
-4376.610,20358.402,90645.318,82023.770,49487.951,78036.315,60847.281,92565.203,-0.140,0.998,0.065,0.946,0.275,-0.671,93.333,316.000,1.000
-4564.667,19939.574,90767.044,81934.280,48578.577,77091.810,59923.609,91670.957,-0.140,0.999,0.062,0.977,0.031,-0.610,93.333,317.000,1.000
-4744.912,19519.744,90866.425,81831.184,47661.844,76136.650,58990.110,90752.939,-0.141,1.000,0.064,1.068,-0.183,-0.458,93.333,318.000,1.000
-4916.238,19108.878,90964.247,81715.736,46761.348,75185.668,58071.520,89848.940,-0.143,0.997,0.062,1.190,-0.458,-0.580,93.333,319.000,1.000
-5084.804,18700.981,91049.245,81586.909,45864.433,74231.078,57155.441,88942.363,-0.142,0.998,0.059,1.221,-0.671,-0.641,93.333,320.000,1.000
-5252.420,18289.928,91105.195,81443.889,44950.977,73260.998,56220.797,88000.819,-0.143,0.999,0.062,1.312,-0.793,-0.610,93.333,321.000,1.000
-5414.163,17882.429,91144.049,81288.049,44033.644,72283.913,55280.225,87041.430,-0.142,1.000,0.063,1.343,-0.977,-0.580,93.333,322.000,1.000
-5569.051,17484.751,91183.779,81120.580,43134.657,71313.272,54357.180,86100.856,-0.139,0.996,0.064,1.343,-1.190,-0.610,93.333,323.000,1.000
-5723.295,17089.264,91213.660,80940.081,42243.535,70341.649,53441.285,85167.081,-0.138,0.996,0.062,1.404,-1.282,-0.671,93.333,324.000,1.000
-5879.648,16687.171,91213.206,80744.741,41336.094,69353.866,52506.556,84201.746,-0.137,0.996,0.060,1.495,-1.312,-0.763,93.333,325.000,1.000
-6032.516,16284.628,91190.278,80535.434,40420.102,68355.538,51559.516,83212.308,-0.135,0.994,0.061,1.526,-1.526,-0.824,93.333,326.000,1.000
-6178.092,15892.254,91167.300,80314.316,39522.262,67363.931,50627.666,82239.449,-0.136,0.995,0.064,1.617,-1.465,-0.885,93.333,327.000,1.000
-6320.967,15506.943,91140.806,80081.625,38640.154,66377.743,49709.574,81282.990,-0.134,0.993,0.062,1.587,-1.434,-1.038,93.333,328.000,1.000
-6465.187,15118.966,91088.855,79836.398,37747.949,65381.367,48778.976,80303.944,-0.133,0.995,0.062,1.587,-1.404,-1.099,93.333,329.000,1.000
-6606.821,14729.972,91011.108,79579.246,36843.957,64374.409,47833.767,79297.131,-0.131,0.996,0.062,1.678,-1.373,-1.190,93.333,330.000,1.000
-6742.013,14347.697,90926.053,79311.609,35950.573,63370.609,46897.285,78297.055,-0.130,0.997,0.061,1.587,-1.312,-1.221,93.333,331.000,1.000
-6875.142,13967.924,90831.407,79032.888,35067.483,62368.776,45969.879,77306.201,-0.129,0.998,0.062,1.648,-1.282,-1.312,93.333,332.000,1.000
-7011.469,13578.791,90703.391,78741.120,34167.221,61351.548,45022.827,76281.752,-0.128,1.000,0.064,1.556,-1.190,-1.343,93.333,333.000,1.000
-7147.729,13180.504,90537.710,78436.293,33242.883,60315.675,44047.677,75208.144,-0.129,1.002,0.064,1.526,-1.038,-1.404,93.333,334.000,1.000
-7277.966,12784.043,90356.302,78120.359,32319.585,59277.745,43069.829,74121.756,-0.129,1.004,0.062,1.556,-0.854,-1.465,93.333,335.000,1.000
-7403.719,12391.204,90167.190,77793.874,31408.248,58244.180,42101.266,73042.375,-0.129,1.002,0.061,1.343,-0.671,-1.617,93.333,336.000,1.000
-7530.046,11992.953,89952.144,77455.379,30487.694,57200.893,41120.554,71939.312,-0.131,1.000,0.062,1.404,-0.397,-1.617,93.333,337.000,1.000
-7655.458,11588.524,89704.494,77104.598,29547.726,56141.425,40116.659,70794.178,-0.130,0.998,0.061,1.221,-0.275,-1.740,93.333,338.000,1.000
-7774.729,11188.914,89445.465,76743.467,28611.597,55080.574,39113.503,69641.004,-0.129,0.996,0.060,1.160,-0.031,-1.770,93.333,339.000,1.000
-7888.946,10797.986,89187.869,76373.106,27695.134,54028.000,38128.602,68507.383,-0.128,0.996,0.061,1.190,0.183,-1.831,93.333,340.000,1.000
-8003.513,10406.471,88914.699,75992.391,26778.770,52971.329,37142.853,67366.335,-0.131,0.996,0.061,1.160,0.305,-1.923,93.333,341.000,1.000
-8117.778,10009.789,88612.173,75600.596,25844.762,51900.228,36137.597,66188.855,-0.132,0.995,0.060,1.099,0.519,-1.984,93.333,342.000,1.000
-8225.974,9616.277,88295.425,75198.906,24910.289,50826.232,35129.606,64999.099,-0.131,0.994,0.059,1.129,0.702,-1.953,93.333,343.000,1.000
-8327.831,9231.098,87979.767,74788.085,23995.405,49761.537,34139.398,63829.893,-0.133,0.994,0.059,1.160,0.885,-1.953,93.333,344.000,1.000
-8428.993,8846.768,87652.404,74367.014,23086.549,48696.907,33153.250,62662.709,-0.135,0.998,0.060,1.190,1.007,-2.106,93.333,345.000,1.000
-8530.549,8458.145,87297.802,73935.084,22163.738,47620.102,32150.409,61464.616,-0.136,0.997,0.062,1.251,1.160,-2.197,93.333,346.000,1.000
-8627.255,8073.438,86928.839,73493.988,21239.819,46540.134,31144.289,60252.669,-0.136,0.996,0.060,1.190,1.343,-2.197,93.333,347.000,1.000
-8717.662,7700.052,86564.804,73045.394,20337.760,45471.721,30159.836,59064.678,-0.137,0.995,0.061,1.221,1.434,-2.106,93.333,348.000,1.000
-8807.138,7331.171,86196.758,72588.590,19448.302,44408.717,29188.545,57890.517,-0.139,0.993,0.060,1.190,1.526,-2.136,93.333,349.000,1.000
-8898.026,6958.187,85804.664,72122.324,18547.457,43336.105,28204.803,56692.085,-0.140,0.993,0.057,1.312,1.678,-2.075,93.333,350.000,1.000
-8985.186,6586.287,85394.193,71647.350,17641.396,42258.147,27213.116,55474.402,-0.142,0.994,0.060,1.343,1.770,-2.106,93.333,351.000,1.000
-9065.442,6224.198,84984.622,71164.959,16754.654,41189.990,26238.310,54274.967,-0.142,0.995,0.060,1.434,1.862,-2.045,93.333,352.000,1.000
-9143.612,5867.030,84571.048,70674.318,15883.574,40128.447,25277.699,53092.039,-0.142,0.996,0.062,1.495,2.014,-1.862,93.333,353.000,1.000
-9223.918,5504.379,84132.407,70173.782,15002.331,39057.017,24305.333,51887.038,-0.144,0.995,0.063,1.648,1.953,-1.892,93.333,354.000,1.000
-9302.548,5139.067,83671.004,69664.052,14110.908,37976.508,23320.844,50657.349,-0.146,0.995,0.058,1.678,2.075,-1.862,93.333,355.000,1.000
-9374.845,4782.132,83209.915,69147.422,13235.822,36904.568,22351.609,49443.502,-0.147,0.996,0.057,1.709,1.984,-1.831,93.333,356.000,1.000
-9443.516,4433.526,82752.637,68624.420,12382.177,35844.853,21403.806,48256.685,-0.149,0.996,0.060,1.740,1.953,-1.770,93.333,357.000,1.000
-9512.746,4083.925,82279.347,68093.805,11526.002,34782.666,20453.155,47060.895,-0.149,0.998,0.060,1.678,1.801,-1.617,93.333,358.000,1.000
-9579.744,3733.202,81785.455,67555.586,10660.225,33714.113,19491.724,45841.785,-0.148,0.998,0.062,1.678,1.801,-1.526,93.333,359.000,1.000
-9639.939,3390.352,81289.592,67011.223,9807.681,32653.523,18542.690,44632.882,-0.150,0.999,0.065,1.617,1.740,-1.373,93.333,360.000,1.000
-9696.018,3055.215,80796.586,66460.725,8977.114,31605.459,17615.818,43450.867,-0.151,0.998,0.062,1.648,1.770,-1.312,93.333,361.000,1.000
-9753.454,2717.110,80286.004,65902.298,8145.389,30554.688,16687.949,42262.492,-0.150,0.996,0.062,1.678,1.709,-1.282,93.333,362.000,1.000
-9810.639,2373.759,79748.678,65335.444,7299.873,29493.797,15745.713,41045.960,-0.151,0.997,0.061,1.709,1.648,-1.282,93.333,363.000,1.000
-9862.025,2035.305,79203.149,64761.873,6461.805,28437.103,14810.665,39831.940,-0.150,1.000,0.064,1.617,1.556,-1.282,93.333,364.000,1.000
-9908.336,1706.005,78661.421,64182.671,5647.061,27394.872,13899.871,38647.247,-0.151,0.996,0.063,1.526,1.465,-1.190,93.333,365.000,1.000
-9954.864,1377.785,78108.040,63597.084,4837.763,26355.916,12995.593,37466.341,-0.151,0.996,0.066,1.434,1.465,-1.160,93.333,366.000,1.000
-10001.547,1046.918,77530.825,63004.997,4017.195,25310.403,12079.980,36260.537,-0.150,0.995,0.063,1.556,1.312,-1.129,93.333,367.000,1.000
-10043.806,721.132,76944.395,62407.991,3201.324,24268.894,11168.475,35051.464,-0.149,0.996,0.061,1.617,1.251,-1.068,93.333,368.000,1.000
-10082.276,403.156,76361.701,61806.568,2407.144,23241.189,10278.760,33867.990,-0.150,0.994,0.059,1.526,1.099,-1.068,93.333,369.000,1.000
-10122.538,82.333,75767.386,61198.738,1617.690,22215.080,9394.104,32687.946,-0.149,0.997,0.060,1.526,1.038,-1.099,93.333,370.000,1.000
-10164.823,-248.314,75144.254,60583.067,810.729,21176.292,8491.280,31475.371,-0.149,0.995,0.058,1.556,0.977,-1.068,93.333,371.000,1.000
-10202.791,-579.742,74505.064,59961.152,-0.786,20134.191,7582.570,30245.537,-0.149,0.994,0.061,1.617,0.946,-1.007,93.333,372.000,1.000
-10234.056,-901.741,73870.837,59335.326,-791.471,19105.940,6693.928,29036.993,-0.147,0.995,0.061,1.617,0.977,-0.916,93.333,373.000,1.000
-10263.789,-1218.885,73234.557,58705.602,-1568.629,18087.119,5818.527,27841.352,-0.149,0.994,0.060,1.587,1.007,-0.977,93.333,374.000,1.000
-10295.428,-1540.348,72575.325,58070.773,-2357.982,17061.180,4929.980,26619.330,-0.149,0.995,0.060,1.709,0.946,-0.916,93.333,375.000,1.000
-10325.587,-1863.787,71895.113,57430.953,-3157.798,16028.871,4029.305,25371.503,-0.148,0.994,0.060,1.709,1.007,-0.916,93.333,376.000,1.000
-10351.656,-2182.485,71210.566,56786.821,-3946.006,15003.547,3138.867,24132.409,-0.148,0.994,0.061,1.709,1.007,-0.916,93.333,377.000,1.000
-10376.919,-2500.341,70518.047,56137.634,-4724.498,13983.417,2257.091,22901.609,-0.147,0.993,0.061,1.740,0.946,-0.854,93.333,378.000,1.000
-10403.425,-2825.367,69799.284,55482.444,-5516.296,12954.230,1360.278,21642.384,-0.145,0.994,0.061,1.740,0.977,-0.916,93.333,379.000,1.000
-10426.874,-3154.440,69056.408,54822.372,-6321.950,11916.674,447.281,20349.538,-0.147,0.994,0.063,1.770,1.038,-0.885,93.333,380.000,1.000
-10444.173,-3479.129,68308.912,54159.286,-7118.765,10885.538,-458.336,19057.549,-0.146,0.995,0.063,1.770,1.038,-0.946,93.333,381.000,1.000
-10459.722,-3802.050,67557.481,53492.969,-7904.858,9861.573,-1353.183,17773.619,-0.146,0.994,0.061,1.678,0.977,-0.977,93.333,382.000,1.000
-10478.158,-4132.480,66782.951,52821.921,-8704.494,8829.377,-2261.038,16462.353,-0.146,0.995,0.060,1.678,1.007,-1.038,93.333,383.000,1.000
-10496.361,-4468.613,65983.277,52146.366,-9523.108,7786.234,-3187.614,15112.420,-0.147,0.996,0.058,1.678,1.038,-1.038,93.333,384.000,1.000
-10509.142,-4799.386,65179.861,51467.945,-10335.233,6748.445,-4107.167,13761.280,-0.148,0.997,0.059,1.526,0.977,-1.038,93.333,385.000,1.000
-10518.017,-5122.722,64381.383,50786.746,-11127.978,5723.202,-5006.355,12431.481,-0.149,0.996,0.059,1.495,0.916,-1.068,93.333,386.000,1.000
-10527.140,-5446.196,63572.702,50101.383,-11919.230,4698.461,-5903.852,11097.054,-0.149,0.996,0.061,1.556,1.068,-1.068,93.333,387.000,1.000
-10534.602,-5769.025,62749.252,49412.153,-12717.399,3669.561,-6809.553,9741.993,-0.149,0.995,0.059,1.404,1.068,-1.129,93.333,388.000,1.000
-10535.617,-6079.645,61931.827,48721.381,-13499.251,2652.242,-7700.359,8400.225,-0.150,0.994,0.063,1.404,1.007,-1.099,93.333,389.000,1.000
-10531.358,-6374.033,61133.246,48030.120,-14248.249,1657.093,-8558.298,7101.383,-0.149,0.993,0.061,1.312,1.007,-1.068,93.333,390.000,1.000
-10526.752,-6661.203,60338.309,47337.078,-14982.313,672.548,-9400.270,5822.880,-0.148,0.994,0.059,1.282,1.038,-1.068,93.333,391.000,1.000
-10521.496,-6946.170,59533.589,46641.461,-15719.496,-312.357,-10244.729,4536.738,-0.149,0.992,0.059,1.221,1.068,-1.038,93.333,392.000,1.000
-10511.105,-7221.880,58731.417,45944.408,-16445.417,-1287.940,-11077.975,3263.004,-0.150,0.991,0.059,1.251,1.068,-0.916,93.333,393.000,1.000
-10495.937,-7484.203,57944.275,45246.581,-17142.367,-2243.462,-11882.366,2030.437,-0.150,0.993,0.058,1.251,1.068,-0.885,93.333,394.000,1.000
-10481.266,-7741.437,57158.590,44546.605,-17824.767,-3189.257,-12672.522,819.173,-0.149,0.993,0.059,1.251,1.221,-0.885,93.333,395.000,1.000
-10468.021,-8000.297,56358.014,43843.488,-18513.890,-4139.286,-13470.386,-405.639,-0.150,0.992,0.058,1.221,1.251,-0.763,93.333,396.000,1.000
-10451.194,-8254.129,55553.623,43138.739,-19198.310,-5085.642,-14264.470,-1630.088,-0.150,0.993,0.056,1.068,1.190,-0.610,93.333,397.000,1.000
-10428.888,-8495.122,54764.852,42434.227,-19853.675,-6012.000,-15029.088,-2815.492,-0.148,0.995,0.060,1.038,1.221,-0.671,93.333,398.000,1.000
-10405.247,-8727.834,53986.118,41729.453,-20485.232,-6921.165,-15768.389,-3965.313,-0.148,0.997,0.059,1.068,1.251,-0.671,93.333,399.000,1.000
-10382.127,-8959.349,53200.203,41023.014,-21114.659,-7826.351,-16504.320,-5111.457,-0.147,0.997,0.060,1.007,1.251,-0.580,93.333,400.000,1.000
-10355.459,-9185.208,52412.141,40315.399,-21737.070,-8723.917,-17232.457,-6248.080,-0.148,0.998,0.061,0.885,1.251,-0.488,93.333,401.000,1.000
-10323.163,-9397.657,51639.975,39608.013,-22329.196,-9599.223,-17928.788,-7338.555,-0.149,0.997,0.061,0.854,1.373,-0.397,93.333,402.000,1.000
-10289.568,-9600.307,50880.479,38900.525,-22893.077,-10454.220,-18594.335,-8382.862,-0.148,0.998,0.061,0.641,1.343,-0.366,93.333,403.000,1.000
-10257.933,-9801.347,50114.660,38191.673,-23453.006,-11304.433,-19253.754,-9418.845,-0.148,0.999,0.062,0.763,1.373,-0.275,93.333,404.000,1.000
-10224.801,-9997.961,49342.866,37481.959,-24011.223,-12150.620,-19910.694,-10454.470,-0.149,0.998,0.065,0.671,1.465,-0.244,93.333,405.000,1.000
-10185.538,-10179.382,48585.898,36773.199,-24543.632,-12977.066,-20542.344,-11455.149,-0.149,1.000,0.063,0.580,1.465,-0.122,93.333,406.000,1.000
-10139.959,-10340.318,47853.518,36065.868,-25040.899,-13778.192,-21141.143,-12405.666,-0.149,1.002,0.060,0.580,1.404,-0.275,93.333,407.000,1.000
-10090.406,-10483.323,47135.401,35358.797,-25520.751,-14565.702,-21727.456,-13333.510,-0.148,1.000,0.064,0.458,1.465,-0.122,93.333,408.000,1.000
-10039.588,-10614.776,46420.301,34651.102,-25996.315,-15347.985,-22315.422,-14260.063,-0.150,1.000,0.064,0.275,1.404,-0.061,93.333,409.000,1.000
-9992.158,-10746.731,45700.901,33942.644,-26464.191,-16122.828,-22898.835,-15177.586,-0.149,0.998,0.062,0.275,1.373,0.000,93.333,410.000,1.000
-9954.227,-10898.393,44957.812,33232.730,-26932.383,-16895.304,-23480.972,-16092.913,-0.149,0.998,0.061,0.214,1.343,-0.061,93.333,411.000,1.000
-9927.284,-11084.752,44164.225,32520.344,-27427.407,-17681.845,-24085.237,-17045.186,-0.147,0.998,0.062,0.214,1.434,-0.153,93.333,412.000,1.000
-9903.835,-11300.215,43319.444,31806.263,-27955.394,-18485.512,-24717.343,-18048.327,-0.148,0.997,0.060,0.275,1.434,-0.061,93.333,413.000,1.000
-9873.584,-11521.334,42458.009,31093.054,-28483.930,-19285.384,-25345.862,-19056.885,-0.148,0.996,0.064,0.275,1.465,-0.122,93.333,414.000,1.000
-9833.697,-11729.735,41611.087,30382.037,-28984.005,-20063.835,-25943.298,-20025.569,-0.147,0.996,0.063,0.305,1.404,-0.183,93.333,415.000,1.000
-9789.007,-11925.297,40776.322,29671.884,-29465.589,-20828.461,-26521.878,-20967.716,-0.147,0.996,0.067,0.458,1.312,-0.092,93.333,416.000,1.000
-9743.536,-12115.311,39938.149,28961.148,-29950.659,-21593.861,-27106.186,-21918.940,-0.147,0.997,0.061,0.427,1.373,-0.153,93.333,417.000,1.000
-9697.843,-12303.287,39094.404,28250.245,-30438.391,-22359.449,-27697.087,-22881.357,-0.148,0.997,0.061,0.580,1.312,-0.183,93.333,418.000,1.000
-9654.266,-12495.198,38242.317,27539.683,-30925.138,-23122.872,-28291.500,-23850.051,-0.148,0.995,0.064,0.519,1.282,-0.244,93.333,419.000,1.000
-9617.454,-12704.895,37358.809,26828.430,-31434.764,-23899.410,-28913.998,-24862.289,-0.149,0.995,0.066,0.549,1.221,-0.275,93.333,420.000,1.000
-9587.923,-12942.856,36420.698,26115.712,-31995.691,-24706.988,-29594.475,-25966.776,-0.148,0.993,0.062,0.702,1.221,-0.305,93.333,421.000,1.000
-9560.976,-13206.665,35431.942,25402.639,-32603.823,-25543.072,-30330.175,-27163.727,-0.148,0.993,0.063,0.854,1.160,-0.244,93.333,422.000,1.000
-9533.518,-13489.814,34409.211,24690.289,-33238.779,-26395.714,-31101.239,-28423.826,-0.147,0.992,0.061,0.946,1.160,-0.214,93.333,423.000,1.000
-9506.211,-13791.107,33354.252,23977.759,-33901.265,-27266.556,-31908.554,-29746.962,-0.145,0.993,0.062,1.190,1.129,-0.183,93.333,424.000,1.000
-9477.163,-14106.001,32265.810,23264.105,-34599.917,-28160.764,-32760.668,-31147.430,-0.147,0.993,0.060,1.282,1.129,-0.244,93.333,425.000,1.000
-9439.543,-14415.931,31168.710,22551.137,-35311.176,-29061.167,-33632.397,-32591.148,-0.149,0.996,0.063,1.312,1.099,-0.305,93.333,426.000,1.000
-9388.424,-14697.144,30103.666,21842.276,-35988.183,-29935.267,-34473.047,-34003.073,-0.148,0.996,0.062,1.312,1.007,-0.244,93.333,427.000,1.000
-9324.934,-14935.967,29092.885,21139.401,-36605.565,-30764.890,-35252.671,-35335.539,-0.148,0.996,0.064,1.495,0.977,-0.275,93.333,428.000,1.000
-9250.690,-15126.438,28140.704,20442.781,-37161.663,-31547.553,-35965.978,-36577.265,-0.150,0.995,0.066,1.434,0.854,-0.305,93.333,429.000,1.000
-9163.129,-15258.229,27263.638,19753.340,-37639.132,-32271.096,-36592.579,-37694.360,-0.150,0.995,0.064,1.434,0.793,-0.427,93.333,430.000,1.000
-9060.610,-15319.453,26490.431,19072.569,-38001.684,-32911.881,-37092.636,-38621.251,-0.149,0.996,0.066,1.526,0.641,-0.397,93.333,431.000,1.000
-8948.063,-15310.609,25828.964,18400.270,-38236.596,-33461.898,-37449.784,-39325.735,-0.147,0.996,0.062,1.556,0.641,-0.397,93.333,432.000,1.000
-8832.363,-15244.352,25259.316,17734.722,-38366.039,-33935.177,-37683.707,-39832.642,-0.146,0.997,0.064,1.556,0.610,-0.427,93.333,433.000,1.000
-8715.144,-15131.162,24765.041,17075.252,-38407.030,-34341.938,-37810.294,-40165.401,-0.146,0.999,0.064,1.556,0.580,-0.397,93.333,434.000,1.000
-8595.307,-14976.042,24345.675,16422.482,-38353.710,-34678.209,-37823.343,-40314.234,-0.144,0.998,0.064,1.556,0.549,-0.305,93.333,435.000,1.000
-8475.585,-14789.631,23990.639,15775.821,-38211.775,-34948.462,-37729.252,-40285.870,-0.145,0.996,0.067,1.556,0.549,-0.214,93.333,436.000,1.000
-8360.791,-14590.267,23667.394,15132.931,-38016.792,-35176.683,-37566.084,-40135.362,-0.144,0.994,0.064,1.526,0.549,-0.183,93.333,437.000,1.000
-8251.408,-14391.071,23349.756,14492.336,-37798.456,-35382.788,-37367.163,-39913.808,-0.146,0.991,0.064,1.617,0.610,-0.153,93.333,438.000,1.000
-8144.702,-14194.631,23036.702,13854.496,-37554.367,-35566.043,-37133.089,-39623.608,-0.145,0.992,0.063,1.617,0.610,-0.092,93.333,439.000,1.000
-8041.327,-14004.333,22728.733,13219.463,-37280.206,-35724.681,-36861.217,-39260.359,-0.146,0.994,0.063,1.770,0.610,0.061,93.333,440.000,1.000
-7945.023,-13830.629,22406.962,12585.554,-36998.839,-35874.068,-36575.706,-38860.493,-0.146,0.995,0.064,1.678,0.671,0.031,93.333,441.000,1.000
-7855.715,-13679.982,22054.050,11951.645,-36733.752,-36029.103,-36301.622,-38464.963,-0.147,0.993,0.063,1.648,0.732,0.000,93.333,442.000,1.000
-7768.774,-13546.824,21677.286,11318.899,-36476.892,-36183.874,-36032.257,-38067.525,-0.146,0.992,0.062,1.770,0.732,0.031,93.333,443.000,1.000
-7681.961,-13423.958,21289.877,10688.734,-36211.693,-36327.091,-35751.869,-37645.418,-0.145,0.992,0.061,1.801,0.610,-0.031,93.333,444.000,1.000
-7597.320,-13312.872,20884.832,10060.680,-35948.664,-36465.052,-35472.020,-37215.696,-0.144,0.990,0.058,1.953,0.671,-0.031,93.333,445.000,1.000
-7515.071,-13216.085,20449.443,9433.919,-35707.463,-36609.970,-35213.971,-36812.363,-0.141,0.996,0.061,1.892,0.641,-0.153,93.333,446.000,1.000
-7431.886,-13128.209,19991.081,8809.321,-35480.531,-36756.987,-34971.297,-36428.841,-0.141,0.996,0.063,2.014,0.763,-0.031,93.333,447.000,1.000
-7347.282,-13044.472,19523.819,8187.971,-35248.080,-36894.276,-34724.164,-36035.712,-0.143,0.998,0.062,1.953,0.854,-0.122,93.333,448.000,1.000
-7265.324,-12970.014,19041.646,7569.130,-35016.185,-37026.843,-34478.352,-35640.426,-0.141,1.000,0.063,1.953,0.793,-0.122,93.333,449.000,1.000
-7187.197,-12909.945,18531.217,6951.779,-34805.068,-37167.738,-34254.650,-35275.285,-0.141,1.001,0.062,1.831,0.763,-0.031,93.333,450.000,1.000
-7108.234,-12857.454,18001.452,6337.023,-34608.978,-37312.270,-34048.125,-34935.560,-0.142,1.000,0.060,1.801,0.854,-0.092,93.333,451.000,1.000
-7025.466,-12802.937,17473.140,5726.830,-34403.678,-37444.003,-33834.399,-34584.926,-0.142,0.999,0.061,1.740,0.854,-0.031,93.333,452.000,1.000
-6942.026,-12748.310,16945.718,5121.246,-34188.624,-37562.406,-33612.159,-34219.726,-0.142,1.000,0.062,1.770,0.885,-0.122,93.333,453.000,1.000
-6860.380,-12700.458,16402.162,4519.051,-33985.327,-37681.324,-33402.782,-33872.553,-0.141,1.002,0.063,1.648,0.977,-0.092,93.333,454.000,1.000
-6777.190,-12656.178,15843.076,3920.441,-33794.801,-37801.423,-33207.748,-33548.359,-0.143,1.004,0.060,1.465,0.946,-0.153,93.333,455.000,1.000
-6689.621,-12606.718,15286.984,3326.623,-33593.665,-37908.173,-33003.616,-33212.515,-0.143,1.004,0.061,1.251,1.099,-0.214,93.333,456.000,1.000
-6601.303,-12553.395,14736.974,2737.038,-33376.332,-37999.036,-32784.226,-32853.189,-0.142,1.004,0.059,1.221,1.038,-0.214,93.333,457.000,1.000
-6516.390,-12504.725,14176.886,2149.601,-33164.097,-38088.308,-32570.947,-32500.970,-0.142,1.005,0.064,1.099,1.038,-0.183,93.333,458.000,1.000
-6432.233,-12459.812,13604.520,1560.989,-32963.665,-38179.730,-32371.213,-32168.613,-0.140,1.003,0.059,0.916,1.007,-0.153,93.333,459.000,1.000
-6344.047,-12408.717,13039.281,951.016,-32752.609,-38257.831,-32162.561,-31823.692,-0.139,1.003,0.057,0.916,1.038,-0.214,93.333,460.000,1.000
-6253.125,-12349.363,12489.014,252.915,-32519.306,-38314.676,-31932.263,-31446.005,-0.140,1.001,0.058,0.763,1.282,-0.183,93.333,461.000,1.000
-6163.968,-12290.255,11936.853,-640.349,-32283.574,-38363.163,-31699.486,-31063.770,-0.139,0.998,0.061,0.671,1.312,-0.122,93.333,462.000,1.000
-6076.202,-12235.080,11371.626,-1805.343,-32060.681,-38413.379,-31480.040,-30702.697,-0.138,0.998,0.060,0.641,1.465,-0.092,93.333,463.000,1.000
-5986.309,-12178.538,10804.871,-3227.725,-31836.587,-38456.790,-31260.478,-30344.010,-0.139,0.999,0.059,0.641,1.556,-0.153,93.333,464.000,1.000
-5895.454,-12120.633,10243.795,-4827.022,-31600.035,-38487.140,-31029.384,-29968.987,-0.138,0.996,0.063,0.610,1.617,-0.031,93.333,465.000,1.000
-5808.349,-12071.551,9672.256,-6513.714,-31370.136,-38517.703,-30805.861,-29604.582,-0.139,0.995,0.063,0.610,1.556,-0.061,93.333,466.000,1.000
-5725.152,-12036.823,9076.540,-8199.984,-31166.457,-38561.394,-30610.280,-29282.468,-0.138,0.995,0.064,0.519,1.678,0.000,93.333,467.000,1.000
-5641.591,-12009.412,8468.654,-9796.552,-30976.333,-38609.889,-30430.515,-28986.296,-0.137,0.994,0.062,0.580,1.801,0.031,93.333,468.000,1.000
-5556.993,-11982.915,7864.130,-11251.299,-30779.737,-38650.134,-30245.858,-28684.906,-0.138,0.995,0.061,0.610,1.801,-0.031,93.333,469.000,1.000
-5474.946,-11961.350,7255.690,-12583.030,-30585.161,-38687.388,-30063.875,-28389.549,-0.139,0.994,0.061,0.641,1.953,0.031,93.333,470.000,1.000
-5395.495,-11948.271,6630.831,-13844.987,-30410.535,-38732.710,-29902.573,-28129.672,-0.141,0.992,0.059,0.671,1.892,-0.031,93.333,471.000,1.000
-5313.899,-11936.819,5998.872,-15064.162,-30246.547,-38779.718,-29753.239,-27894.700,-0.142,0.992,0.062,0.702,1.892,-0.122,93.333,472.000,1.000
-5228.604,-11920.021,5375.852,-16241.067,-30072.199,-38815.037,-29594.976,-27652.215,-0.143,0.994,0.059,0.763,1.892,-0.122,93.333,473.000,1.000
-5143.859,-11902.576,4755.093,-17388.260,-29893.991,-38843.273,-29434.322,-27408.991,-0.145,0.994,0.062,0.763,1.862,-0.061,93.333,474.000,1.000
-5062.026,-11891.971,4119.145,-18526.127,-29734.748,-38879.183,-29295.000,-27199.821,-0.145,0.995,0.065,0.763,1.862,-0.092,93.333,475.000,1.000
-4979.487,-11884.790,3472.064,-19645.803,-29591.638,-38920.646,-29175.383,-27023.503,-0.146,0.994,0.063,0.793,1.770,-0.092,93.333,476.000,1.000
-4893.406,-11873.140,2832.479,-20716.892,-29441.120,-38952.551,-29052.228,-26844.891,-0.144,0.993,0.063,0.671,1.801,-0.122,93.333,477.000,1.000
-4806.693,-11858.691,2200.670,-21733.932,-29281.302,-38974.185,-28923.246,-26658.940,-0.144,0.994,0.065,0.702,1.709,-0.153,93.333,478.000,1.000
-4722.353,-11848.004,1560.813,-22719.878,-29132.903,-38999.068,-28809.107,-26497.394,-0.143,0.995,0.062,0.702,1.617,-0.153,93.333,479.000,1.000
-4638.231,-11838.534,913.235,-23681.769,-28998.094,-39028.142,-28711.995,-26366.544,-0.144,0.997,0.063,0.702,1.740,-0.153,93.333,480.000,1.000
-4551.848,-11822.056,275.820,-24600.156,-28854.870,-39046.799,-28608.801,-26232.853,-0.142,0.995,0.063,0.671,1.801,-0.244,93.333,481.000,1.000
-4465.772,-11799.295,-347.992,-25468.252,-28697.423,-39051.272,-28491.788,-26083.008,-0.142,0.996,0.064,0.702,1.709,-0.183,93.333,482.000,1.000
-4383.080,-11778.481,-975.053,-26301.127,-28546.769,-39055.117,-28380.993,-25946.054,-0.141,0.998,0.065,0.641,1.709,-0.061,93.333,483.000,1.000
-4301.551,-11760.800,-1612.228,-27091.061,-28411.703,-39064.022,-28285.850,-25837.010,-0.142,0.999,0.063,0.580,1.709,-0.061,93.333,484.000,1.000
-4217.836,-11740.040,-2247.291,-27792.429,-28273.273,-39066.419,-28188.413,-25728.498,-0.142,0.999,0.062,0.671,1.709,0.000,93.333,485.000,1.000
-4133.967,-11716.481,-2876.976,-28374.008,-28121.675,-39057.181,-28079.255,-25603.599,-0.142,0.996,0.062,0.549,1.648,0.000,93.333,486.000,1.000
-4053.692,-11697.845,-3516.824,-28856.035,-27975.731,-39048.900,-27977.343,-25489.703,-0.141,0.996,0.063,0.397,1.709,-0.061,93.333,487.000,1.000
-3975.206,-11684.764,-4171.644,-29276.066,-27847.740,-39048.550,-27895.217,-25408.417,-0.140,0.996,0.061,0.488,1.648,0.061,93.333,488.000,1.000
-3893.950,-11668.294,-4821.507,-29650.344,-27719.648,-39043.227,-27814.481,-25334.895,-0.140,0.995,0.064,0.458,1.648,0.000,93.333,489.000,1.000
-3810.474,-11645.051,-5451.675,-29991.568,-27575.771,-39022.523,-27718.359,-25243.298,-0.141,0.997,0.066,0.519,1.617,0.122,93.333,490.000,1.000
-3728.847,-11622.540,-6073.723,-30331.627,-27431.404,-38996.775,-27621.504,-25154.189,-0.143,0.996,0.066,0.549,1.587,0.061,93.333,491.000,1.000
-3648.837,-11605.086,-6700.627,-30692.706,-27303.969,-38977.660,-27541.899,-25095.651,-0.144,0.997,0.063,0.519,1.648,0.031,93.333,492.000,1.000
-3566.440,-11586.100,-7322.329,-31056.141,-27180.113,-38956.939,-27466.944,-25050.347,-0.143,0.998,0.062,0.519,1.648,0.000,93.333,493.000,1.000
-3481.579,-11560.265,-7925.693,-31391.194,-27039.561,-38922.076,-27376.249,-24986.572,-0.144,0.997,0.062,0.519,1.617,-0.031,93.333,494.000,1.000
-3398.457,-11532.590,-8519.921,-31698.650,-26891.146,-38879.121,-27278.259,-24914.955,-0.144,0.995,0.064,0.519,1.465,0.031,93.333,495.000,1.000
-3317.799,-11507.741,-9119.266,-31996.323,-26754.374,-38840.352,-27192.700,-24865.324,-0.145,0.996,0.064,0.549,1.495,-0.061,93.333,496.000,1.000
-3235.312,-11480.015,-9715.354,-32278.337,-26621.545,-38800.134,-27112.049,-24827.534,-0.144,0.995,0.066,0.671,1.312,-0.122,93.333,497.000,1.000
-3149.236,-11442.863,-10291.027,-32524.567,-26471.088,-38744.101,-27013.939,-24767.021,-0.143,0.994,0.067,0.702,1.282,-0.122,93.333,498.000,1.000
-3063.351,-11400.313,-10850.595,-32740.359,-26306.990,-38674.536,-26901.269,-24686.180,-0.145,0.996,0.068,0.732,1.404,-0.183,93.333,499.000,1.000
-2980.287,-11359.259,-11411.164,-32949.965,-26150.821,-38604.944,-26795.534,-24617.642,-0.144,0.996,0.067,0.854,1.343,-0.244,93.333,500.000,1.000
-2897.569,-11317.211,-11971.809,-33154.552,-26001.671,-38534.676,-26696.474,-24563.091,-0.147,0.993,0.067,1.068,1.129,-0.336,93.333,501.000,1.000
-2813.403,-11268.402,-12517.722,-33332.904,-25839.327,-38451.572,-26583.772,-24492.497,-0.146,0.992,0.065,1.038,1.068,-0.336,93.333,502.000,1.000
-2730.757,-11216.544,-13050.307,-33483.341,-25664.526,-38357.330,-26457.099,-24404.207,-0.144,0.992,0.063,1.099,1.099,-0.336,93.333,503.000,1.000
-2651.607,-11169.679,-13585.500,-33627.924,-25499.876,-38266.896,-26338.465,-24331.482,-0.143,0.992,0.061,1.160,1.129,-0.458,93.333,504.000,1.000
-2572.246,-11126.123,-14123.178,-33770.999,-25348.765,-38181.912,-26231.776,-24281.876,-0.144,0.992,0.064,1.221,1.068,-0.397,93.333,505.000,1.000
-2489.100,-11077.752,-14646.062,-33890.429,-25189.082,-38087.676,-26115.585,-24223.023,-0.144,0.992,0.066,1.404,1.099,-0.336,93.333,506.000,1.000
-2404.862,-11024.846,-15151.313,-33978.822,-25013.944,-37979.839,-25983.206,-24142.487,-0.143,0.994,0.068,1.495,1.160,-0.427,93.333,507.000,1.000
-2323.731,-10975.132,-15656.042,-34058.154,-24843.884,-37871.735,-25855.547,-24070.661,-0.143,0.996,0.064,1.617,1.068,-0.366,93.333,508.000,1.000
-2244.424,-10929.362,-16166.424,-34140.730,-24688.544,-37769.411,-25743.022,-24024.582,-0.142,0.996,0.065,1.617,0.977,-0.458,93.333,509.000,1.000
-2163.520,-10880.733,-16668.036,-34209.303,-24529.936,-37661.286,-25627.849,-23977.996,-0.143,0.999,0.065,1.678,0.946,-0.458,93.333,510.000,1.000
-2082.343,-10828.801,-17154.849,-34252.632,-24358.007,-37541.269,-25499.279,-23913.063,-0.143,0.999,0.065,1.617,1.038,-0.397,93.333,511.000,1.000
-2004.157,-10780.984,-17641.799,-34288.809,-24190.848,-37421.268,-25375.009,-23855.862,-0.142,0.998,0.066,1.587,1.038,-0.366,93.333,512.000,1.000
-1927.147,-10738.313,-18136.872,-34332.141,-24040.966,-37309.218,-25268.204,-23828.456,-0.143,0.994,0.063,1.617,1.007,-0.305,93.333,513.000,1.000
-1847.010,-10692.377,-18625.166,-34365.969,-23890.918,-37193.928,-25162.099,-23807.237,-0.142,0.995,0.062,1.526,1.068,-0.305,93.333,514.000,1.000
-1764.947,-10639.889,-19095.516,-34373.205,-23724.687,-37065.533,-25040.387,-23766.012,-0.141,0.991,0.062,1.556,1.038,-0.275,93.333,515.000,1.000
-1686.143,-10588.075,-19560.466,-34367.929,-23556.713,-36933.439,-24916.982,-23723.611,-0.142,0.992,0.062,1.801,0.946,-0.244,93.333,516.000,1.000
-1611.107,-10540.817,-20032.351,-34368.924,-23404.432,-36808.112,-24809.535,-23707.157,-0.143,0.993,0.063,1.953,1.038,-0.214,93.333,517.000,1.000
-1535.429,-10491.473,-20500.281,-34364.683,-23255.774,-36681.045,-24706.367,-23700.164,-0.144,0.995,0.060,2.106,1.099,-0.183,93.333,518.000,1.000
-1457.970,-10436.025,-20951.171,-34335.636,-23092.486,-36541.010,-24588.897,-23673.186,-0.141,0.995,0.062,2.136,1.160,-0.122,93.333,519.000,1.000
-1382.080,-10381.642,-21394.978,-34291.822,-22925.198,-36396.211,-24467.181,-23639.481,-0.140,0.996,0.064,2.136,1.190,-0.122,93.333,520.000,1.000
-1307.940,-10333.503,-21845.634,-34254.368,-22773.373,-36259.689,-24360.779,-23630.037,-0.140,0.992,0.057,2.136,1.221,-0.092,93.333,521.000,1.000
-1231.164,-10283.847,-22292.689,-34214.596,-22626.962,-36124.170,-24259.974,-23633.436,-0.140,0.989,0.057,2.167,1.312,-0.153,93.333,522.000,1.000
-1150.919,-10224.389,-22717.709,-34147.952,-22462.383,-35973.669,-24140.734,-23613.683,-0.143,0.986,0.060,2.319,1.282,-0.153,93.333,523.000,1.000
-1072.354,-10160.017,-23126.261,-34057.976,-22284.303,-35811.162,-24006.862,-23574.247,-0.145,0.988,0.059,2.441,1.221,-0.214,93.333,524.000,1.000
-998.404,-10099.157,-23536.923,-33969.201,-22116.191,-35651.909,-23881.824,-23550.195,-0.148,0.990,0.059,2.563,1.221,-0.305,93.333,525.000,1.000
-925.709,-10039.138,-23948.280,-33882.797,-21957.754,-35495.830,-23766.197,-23544.050,-0.148,0.994,0.061,2.594,1.160,-0.549,93.333,526.000,1.000
-851.693,-9973.083,-24344.582,-33777.097,-21788.035,-35330.055,-23639.563,-23524.466,-0.148,0.997,0.060,2.472,1.038,-0.732,93.333,527.000,1.000
-779.369,-9904.439,-24727.979,-33650.782,-21607.115,-35155.627,-23501.946,-23488.390,-0.149,0.999,0.061,2.472,1.007,-0.824,93.333,528.000,1.000
-710.986,-9841.537,-25116.047,-33527.279,-21437.565,-34987.312,-23376.187,-23468.929,-0.147,1.000,0.061,2.289,0.977,-0.763,93.333,529.000,1.000
-642.657,-9782.284,-25508.862,-33411.909,-21282.578,-34826.121,-23266.158,-23473.546,-0.148,1.000,0.053,2.289,0.946,-1.007,93.333,530.000,1.000
-570.366,-9717.671,-25887.519,-33282.036,-21119.258,-34655.958,-23148.939,-23468.512,-0.144,1.000,0.054,2.228,0.824,-0.977,93.333,531.000,1.000
-496.525,-9647.493,-26247.461,-33128.756,-20939.948,-34471.317,-23015.911,-23439.395,-0.143,1.001,0.056,2.106,0.763,-1.099,93.333,532.000,1.000
-425.234,-9579.069,-26604.940,-32972.225,-20764.657,-34285.110,-22886.450,-23415.139,-0.141,1.002,0.058,2.106,0.916,-1.038,93.333,533.000,1.000
-355.210,-9511.960,-26965.244,-32822.443,-20601.893,-34102.876,-22769.321,-23411.502,-0.142,0.998,0.055,2.075,0.885,-1.068,93.333,534.000,1.000
-283.106,-9437.911,-27312.494,-32659.592,-20431.683,-33912.122,-22644.579,-23400.258,-0.145,0.999,0.056,2.014,0.916,-1.007,93.333,535.000,1.000
-210.503,-9356.652,-27640.070,-32471.375,-20242.910,-33706.756,-22500.216,-23362.037,-0.145,0.998,0.055,1.953,0.885,-0.916,93.333,536.000,1.000
-141.365,-9278.083,-27964.474,-32277.715,-20055.257,-33500.491,-22355.203,-23323.879,-0.145,0.997,0.055,1.892,1.068,-0.793,93.333,537.000,1.000
-74.854,-9206.062,-28296.156,-32096.132,-19884.390,-33303.538,-22225.659,-23310.812,-0.144,0.997,0.054,1.770,1.038,-0.610,93.333,538.000,1.000
-7.113,-9133.213,-28621.349,-31911.589,-19714.821,-33105.500,-22096.864,-23301.398,-0.144,0.996,0.054,1.648,1.068,-0.549,93.333,539.000,1.000
61.278,-9055.840,-28928.487,-31706.222,-19530.381,-32895.836,-21952.681,-23269.698,-0.145,0.996,0.052,1.709,1.068,-0.427,93.333,540.000,1.000
126.335,-8980.872,-29229.663,-31492.864,-19344.756,-32683.386,-21806.682,-23234.589,-0.145,0.993,0.051,1.740,1.129,-0.244,93.333,541.000,1.000
188.454,-8912.181,-29537.390,-31290.132,-19175.250,-32478.913,-21676.747,-23224.338,-0.147,0.995,0.053,1.740,1.160,-0.153,93.333,542.000,1.000
252.181,-8842.507,-29840.848,-31086.761,-19009.762,-32274.170,-21551.267,-23223.449,-0.149,0.995,0.056,1.740,1.190,-0.122,93.333,543.000,1.000
318.100,-8766.722,-30126.617,-30863.094,-18829.655,-32057.478,-21411.012,-23202.132,-0.152,0.994,0.057,1.740,1.221,-0.061,93.333,544.000,1.000
382.076,-8691.862,-30405.112,-30629.947,-18645.917,-31836.917,-21266.120,-23173.677,-0.149,0.997,0.054,1.801,1.007,-0.031,93.333,545.000,1.000
443.267,-8624.668,-30692.489,-30411.305,-18480.193,-31626.943,-21138.496,-23171.751,-0.150,0.997,0.056,1.678,0.885,-0.092,93.333,546.000,1.000
505.684,-8559.230,-30980.985,-30201.884,-18325.108,-31422.368,-21021.780,-23188.966,-0.148,0.996,0.060,1.617,0.946,-0.061,93.333,547.000,1.000
570.242,-8487.375,-31252.749,-29977.839,-18157.443,-31207.637,-20893.216,-23190.672,-0.149,0.997,0.059,1.648,0.916,0.000,93.333,548.000,1.000
632.230,-8412.306,-31511.293,-29740.113,-17979.488,-30983.971,-20754.931,-23177.737,-0.146,0.996,0.056,1.648,0.763,0.000,93.333,549.000,1.000
689.196,-8340.720,-31772.477,-29510.035,-17812.109,-30764.545,-20627.895,-23181.447,-0.149,0.997,0.056,1.556,0.763,-0.092,93.333,550.000,1.000
745.084,-8269.076,-32032.891,-29286.803,-17653.705,-30548.090,-20510.727,-23201.349,-0.146,0.998,0.054,1.495,0.885,-0.061,93.333,551.000,1.000
803.379,-8189.923,-32275.143,-29047.262,-17482.302,-30320.877,-20380.768,-23203.187,-0.146,0.997,0.055,1.526,0.732,0.000,93.333,552.000,1.000
861.961,-8105.982,-32499.855,-28788.377,-17296.446,-30082.903,-20235.189,-23180.832,-0.146,0.999,0.052,1.404,0.763,0.061,93.333,553.000,1.000
918.669,-8025.208,-32724.141,-28532.497,-17117.701,-29848.540,-20094.963,-23166.042,-0.145,0.999,0.053,1.251,0.732,0.031,93.333,554.000,1.000
976.421,-7945.963,-32949.282,-28285.227,-16949.777,-29619.879,-19964.350,-23167.718,-0.146,0.997,0.054,1.160,0.763,-0.061,93.333,555.000,1.000
1037.698,-7860.280,-33158.244,-28024.760,-16771.005,-29382.645,-19822.171,-23154.615,-0.144,0.997,0.055,1.068,0.580,0.122,93.333,556.000,1.000
1098.776,-7769.332,-33347.904,-27742.895,-16574.740,-29132.664,-19661.629,-23114.120,-0.145,0.998,0.055,1.038,0.641,0.061,93.333,557.000,1.000
1155.255,-7681.940,-33535.581,-27461.057,-16382.243,-28883.570,-19504.129,-23077.015,-0.144,0.998,0.053,0.916,0.793,0.031,93.333,558.000,1.000
1209.235,-7598.679,-33727.558,-27191.343,-16203.868,-28641.457,-19360.863,-23061.649,-0.142,0.997,0.055,0.916,0.854,0.122,93.333,559.000,1.000
1264.996,-7511.294,-33908.541,-26915.521,-16021.099,-28394.111,-19213.649,-23041.762,-0.143,0.994,0.054,0.793,0.824,0.122,93.333,560.000,1.000
1321.200,-7418.360,-34071.513,-26620.916,-15822.604,-28134.768,-19050.240,-22997.484,-0.143,0.993,0.055,0.732,0.763,0.092,93.333,561.000,1.000
1373.766,-7327.948,-34231.774,-26325.513,-15626.348,-27875.609,-18887.635,-22953.322,-0.144,0.994,0.053,0.702,0.824,0.061,93.333,562.000,1.000
1423.733,-7242.476,-34398.555,-26044.850,-15446.087,-27625.413,-18739.718,-22931.564,-0.146,0.994,0.056,0.610,0.824,-0.031,93.333,563.000,1.000
1475.550,-7153.795,-34556.850,-25762.130,-15264.570,-27372.672,-18589.681,-22908.032,-0.145,0.996,0.058,0.458,0.854,0.061,93.333,564.000,1.000
1529.175,-7057.490,-34693.443,-25457.516,-15063.743,-27105.688,-18419.133,-22853.517,-0.144,0.995,0.056,0.427,0.885,-0.061,93.333,565.000,1.000
1580.753,-6959.958,-34819.209,-25142.684,-14856.263,-26832.691,-18240.278,-22784.720,-0.145,0.997,0.057,0.458,0.916,-0.153,93.333,566.000,1.000
1630.320,-6865.591,-34947.080,-24837.219,-14660.315,-26565.184,-18071.896,-22730.758,-0.144,0.995,0.058,0.397,0.916,-0.122,93.333,567.000,1.000
1681.719,-6768.606,-35067.800,-24531.924,-14465.535,-26296.308,-17904.687,-22678.767,-0.145,0.994,0.058,0.397,0.916,-0.153,93.333,568.000,1.000
1734.751,-6665.076,-35169.105,-24207.929,-14253.968,-26014.958,-17720.884,-22600.490,-0.145,0.995,0.060,0.366,0.916,-0.305,93.333,569.000,1.000
1784.395,-6562.626,-35262.181,-23875.524,-14036.659,-25729.147,-17530.985,-22509.659,-0.146,0.996,0.059,0.427,0.946,-0.214,93.333,570.000,1.000
1828.876,-6469.339,-35365.205,-23559.374,-13836.927,-25454.486,-17358.167,-22442.061,-0.145,0.997,0.056,0.427,0.977,-0.214,93.333,571.000,1.000
1872.173,-6381.786,-35473.540,-23256.790,-13650.756,-25188.444,-17198.699,-22394.563,-0.146,0.996,0.057,0.305,1.007,-0.214,93.333,572.000,1.000
1916.622,-6293.736,-35571.397,-22946.519,-13457.787,-24917.840,-17032.008,-22336.424,-0.146,0.996,0.058,0.244,0.977,-0.183,93.333,573.000,1.000
1959.269,-6208.751,-35662.727,-22631.221,-13261.881,-24645.139,-16861.413,-22271.072,-0.146,0.996,0.055,0.275,0.916,-0.275,93.333,574.000,1.000
1998.543,-6132.649,-35763.155,-22333.489,-13084.588,-24383.796,-16708.722,-22231.751,-0.145,0.996,0.056,0.244,0.977,-0.153,93.333,575.000,1.000
2038.313,-6060.251,-35868.473,-22052.891,-12923.616,-24131.525,-16572.700,-22218.985,-0.148,0.998,0.058,0.244,0.946,-0.214,93.333,576.000,1.000
2081.325,-5982.279,-35959.819,-21765.235,-12754.760,-23872.472,-16429.749,-22197.690,-0.149,0.998,0.056,0.153,1.038,-0.153,93.333,577.000,1.000
2124.238,-5900.344,-36036.665,-21466.048,-12574.502,-23605.034,-16276.093,-22160.174,-0.149,0.997,0.058,0.183,1.007,-0.183,93.333,578.000,1.000
2163.577,-5822.705,-36116.454,-21177.628,-12404.626,-23344.014,-16133.243,-22138.017,-0.149,0.998,0.057,0.214,1.038,-0.061,93.333,579.000,1.000
2201.702,-5748.991,-36201.671,-20906.932,-12250.844,-23093.308,-16006.916,-22141.118,-0.149,0.999,0.059,0.153,0.977,-0.061,93.333,580.000,1.000
2241.909,-5671.851,-36275.290,-20632.673,-12092.382,-22839.439,-15875.780,-22137.525,-0.148,0.998,0.058,0.183,0.946,-0.061,93.333,581.000,1.000
2282.008,-5591.511,-36332.340,-20345.012,-11920.963,-22576.996,-15730.347,-22110.974,-0.148,0.995,0.058,0.153,0.885,-0.122,93.333,582.000,1.000
2318.674,-5515.083,-36387.920,-20062.738,-11755.121,-22317.619,-15588.605,-22087.788,-0.149,1.000,0.059,0.000,0.885,0.061,93.333,583.000,1.000
2354.381,-5441.479,-36446.537,-19795.316,-11602.550,-22065.609,-15459.042,-22082.690,-0.149,0.998,0.059,0.031,0.885,0.031,93.333,584.000,1.000
2393.577,-5360.686,-36490.751,-19521.280,-11441.581,-21806.560,-15320.924,-22065.783,-0.149,0.997,0.060,-0.092,0.824,0.031,93.333,585.000,1.000
2434.967,-5269.690,-36511.070,-19224.265,-11257.490,-21531.180,-15159.485,-22013.484,-0.149,0.994,0.061,-0.092,0.763,0.153,93.333,586.000,1.000
2474.009,-5176.077,-36521.617,-18920.029,-11066.646,-21250.275,-14990.614,-21948.642,-0.148,0.997,0.063,-0.031,0.763,0.183,93.333,587.000,1.000
2510.771,-5083.005,-36532.534,-18624.498,-10883.937,-20973.165,-14829.073,-21894.828,-0.145,0.996,0.061,-0.092,0.763,0.275,93.333,588.000,1.000
2548.863,-4983.259,-36530.419,-18322.359,-10694.068,-20689.588,-14659.256,-21829.525,-0.145,0.995,0.062,-0.092,0.763,0.275,93.333,589.000,1.000
2588.118,-4872.594,-36502.519,-17993.770,-10479.167,-20388.028,-14462.136,-21722.354,-0.146,0.995,0.067,-0.031,0.732,0.488,93.333,590.000,1.000
2625.123,-4756.532,-36458.532,-17647.833,-10249.727,-20075.176,-14247.014,-21585.406,-0.146,0.995,0.064,0.031,0.824,0.458,93.333,591.000,1.000
2660.624,-4637.362,-36408.620,-17299.224,-10020.156,-19759.474,-14028.182,-21440.803,-0.143,0.996,0.063,0.031,0.824,0.458,93.333,592.000,1.000
2699.488,-4505.682,-36338.757,-16931.713,-9774.832,-19429.528,-13790.404,-21266.574,-0.144,0.996,0.062,0.061,0.854,0.580,93.333,593.000,1.000
2742.659,-4352.884,-36230.217,-16517.906,-9489.221,-19068.464,-13508.651,-21023.595,-0.143,0.995,0.062,0.122,0.854,0.488,93.333,594.000,1.000
2785.803,-4182.250,-36087.953,-16060.064,-9167.935,-18678.575,-13186.390,-20715.106,-0.144,0.996,0.065,0.122,0.916,0.610,93.333,595.000,1.000
2827.308,-3999.043,-35926.093,-15577.298,-8829.645,-18271.384,-12841.997,-20369.160,-0.144,0.996,0.061,0.244,0.916,0.641,93.333,596.000,1.000
2870.942,-3798.775,-35738.591,-15064.003,-8467.676,-17842.506,-12469.466,-19977.727,-0.143,0.996,0.063,0.153,0.977,0.671,93.333,597.000,1.000
2918.472,-3575.514,-35509.913,-14497.060,-8059.917,-17378.348,-12046.833,-19506.002,-0.143,0.994,0.062,0.183,1.099,0.732,93.333,598.000,1.000
2966.362,-3333.323,-35244.042,-13876.258,-7607.997,-16880.558,-11574.883,-18952.129,-0.143,0.994,0.065,0.275,1.099,0.671,93.333,599.000,1.000
3012.717,-3077.756,-34955.435,-13219.700,-7130.575,-16360.332,-11071.603,-18342.814,-0.141,0.995,0.064,0.336,1.190,0.671,93.333,600.000,1.000
3060.740,-2803.997,-34639.560,-12523.324,-6624.248,-15813.636,-10533.597,-17674.343,-0.144,0.995,0.062,0.336,1.221,0.580,93.333,601.000,1.000
3111.451,-2507.021,-34282.099,-11764.972,-6069.655,-15227.466,-9941.545,-16916.360,-0.142,0.996,0.060,0.366,1.160,0.519,93.333,602.000,1.000
3159.054,-2198.332,-33894.229,-10951.566,-5476.562,-14610.237,-9305.429,-16080.061,-0.143,0.996,0.061,0.458,1.160,0.519,93.333,603.000,1.000
3197.607,-1900.221,-33511.036,-10125.762,-4886.839,-13992.686,-8668.649,-15228.860,-0.142,0.996,0.064,0.397,1.282,0.519,93.333,604.000,1.000
3226.641,-1628.708,-33156.941,-9321.722,-4330.711,-13398.339,-8064.335,-14413.463,-0.142,0.998,0.064,0.427,1.434,0.427,93.333,605.000,1.000
3245.420,-1397.053,-32843.300,-8554.192,-3818.993,-12838.905,-7506.555,-13654.791,-0.141,1.000,0.066,0.305,1.526,0.397,93.333,606.000,1.000
3246.794,-1233.839,-32603.899,-7863.592,-3387.775,-12344.240,-7035.001,-13010.364,-0.141,1.000,0.065,0.275,1.617,0.397,93.333,607.000,1.000
3223.634,-1179.107,-32499.184,-7330.880,-3109.712,-11969.048,-6727.552,-12598.022,-0.140,1.000,0.060,0.275,1.709,0.427,93.333,608.000,1.000
3179.427,-1254.785,-32567.832,-7020.061,-3036.621,-11752.917,-6642.443,-12512.674,-0.139,1.000,0.063,0.397,1.709,0.427,93.333,609.000,1.000
3127.263,-1445.887,-32791.807,-6927.263,-3153.627,-11687.512,-6769.070,-12749.806,-0.140,1.001,0.065,0.397,1.862,0.427,93.333,610.000,1.000
3080.365,-1709.914,-33115.832,-6999.801,-3402.088,-11730.049,-7047.842,-13230.616,-0.141,1.000,0.065,0.275,1.984,0.336,93.333,611.000,1.000
3048.180,-1993.375,-33477.595,-7174.475,-3717.602,-11828.957,-7408.605,-13857.938,-0.143,1.000,0.065,0.214,1.923,0.427,93.333,612.000,1.000
3037.708,-2241.789,-33811.689,-7378.851,-4030.615,-11927.599,-7774.166,-14520.495,-0.142,0.996,0.063,0.214,1.984,0.397,93.333,613.000,1.000
3049.940,-2415.578,-34058.945,-7534.601,-4270.278,-11971.336,-8066.741,-15099.617,-0.144,0.999,0.063,0.122,2.075,0.427,93.333,614.000,1.000
3074.872,-2511.186,-34202.357,-7603.325,-4408.103,-11939.087,-8253.285,-15536.751,-0.144,0.998,0.063,0.092,2.136,0.336,93.333,615.000,1.000
3097.551,-2559.920,-34280.563,-7616.851,-4482.811,-11859.051,-8371.626,-15878.452,-0.144,0.999,0.063,0.031,1.953,0.458,93.333,616.000,1.000
3111.134,-2597.234,-34344.352,-7632.508,-4553.033,-11774.620,-8482.994,-16211.513,-0.145,0.997,0.063,0.061,2.014,0.305,93.333,617.000,1.000
3119.270,-2637.829,-34410.689,-7671.285,-4638.632,-11703.013,-8610.749,-16570.694,-0.143,0.997,0.067,0.122,2.075,0.275,93.333,618.000,1.000
3126.035,-2682.635,-34473.749,-7724.660,-4730.849,-11640.628,-8747.604,-16945.385,-0.146,0.996,0.068,0.061,2.106,0.305,93.333,619.000,1.000
3130.413,-2735.361,-34539.310,-7799.483,-4836.169,-11591.981,-8899.426,-17344.459,-0.144,0.995,0.067,0.183,1.984,0.336,93.333,620.000,1.000
3131.599,-2800.612,-34620.778,-7916.273,-4973.029,-11568.664,-9084.118,-17796.105,-0.144,0.993,0.062,0.092,2.045,0.397,93.333,621.000,1.000
3132.051,-2875.774,-34714.712,-8073.781,-5138.242,-11568.651,-9298.970,-18297.515,-0.145,0.994,0.062,0.214,2.014,0.427,93.333,622.000,1.000
3132.189,-2957.609,-34809.217,-8254.394,-5314.410,-11581.385,-9526.903,-18822.037,-0.145,0.995,0.062,0.275,1.953,0.427,93.333,623.000,1.000
3128.535,-3050.316,-34908.995,-8460.518,-5504.517,-11609.154,-9770.395,-19372.271,-0.146,0.996,0.062,0.275,1.953,0.427,93.333,624.000,1.000
3120.781,-3155.259,-35024.548,-8708.204,-5723.382,-11660.175,-10043.695,-19972.200,-0.146,0.998,0.066,0.336,1.984,0.427,93.333,625.000,1.000
3114.858,-3259.015,-35142.066,-8985.718,-5958.097,-11723.259,-10333.610,-20606.467,-0.144,0.997,0.065,0.397,1.862,0.427,93.333,626.000,1.000
3114.945,-3344.604,-35232.649,-9256.574,-6173.765,-11773.535,-10604.425,-21222.183,-0.147,0.996,0.062,0.458,1.892,0.488,93.333,627.000,1.000
3117.873,-3410.282,-35289.764,-9507.775,-6360.225,-11803.869,-10844.499,-21798.503,-0.144,0.996,0.063,0.458,1.831,0.549,93.333,628.000,1.000
3119.461,-3465.735,-35331.118,-9759.842,-6538.854,-11828.476,-11074.327,-22363.567,-0.145,0.994,0.062,0.488,1.770,0.519,93.333,629.000,1.000
3121.226,-3513.983,-35363.736,-10022.793,-6719.200,-11854.019,-11303.930,-22931.878,-0.145,0.993,0.062,0.580,1.801,0.580,93.333,630.000,1.000
3126.308,-3549.146,-35373.918,-10277.253,-6883.206,-11869.548,-11516.241,-23476.009,-0.144,0.994,0.063,0.580,1.770,0.702,93.333,631.000,1.000
3132.861,-3570.101,-35355.950,-10510.970,-7021.439,-11869.764,-11702.338,-23979.050,-0.145,0.995,0.064,0.641,1.617,0.549,93.333,632.000,1.000
3136.885,-3583.494,-35324.277,-10740.255,-7151.161,-11865.603,-11879.371,-24465.863,-0.144,0.995,0.064,0.641,1.617,0.549,93.333,633.000,1.000
3139.288,-3591.199,-35286.821,-10976.356,-7282.312,-11861.809,-12056.722,-24953.760,-0.144,0.994,0.065,0.763,1.740,0.610,93.333,634.000,1.000
3144.354,-3586.250,-35229.634,-11200.288,-7395.702,-11844.186,-12214.194,-25415.133,-0.143,0.996,0.067,0.793,1.678,0.549,93.333,635.000,1.000
3152.357,-3565.313,-35141.870,-11393.995,-7475.396,-11802.000,-12334.685,-25823.089,-0.140,0.995,0.064,0.763,1.556,0.519,93.333,636.000,1.000
3159.606,-3535.071,-35035.133,-11570.755,-7536.158,-11745.498,-12432.324,-26196.692,-0.140,0.995,0.062,0.763,1.556,0.519,93.333,637.000,1.000
3165.287,-3501.163,-34922.056,-11749.163,-7595.815,-11686.961,-12525.070,-26563.154,-0.140,0.997,0.066,0.732,1.556,0.580,93.333,638.000,1.000
3172.095,-3460.431,-34794.920,-11919.986,-7644.663,-11620.694,-12603.495,-26908.708,-0.140,0.998,0.067,0.916,1.495,0.671,93.333,639.000,1.000
3179.818,-3410.428,-34644.177,-12067.327,-7668.413,-11538.161,-12653.249,-27209.356,-0.141,0.999,0.062,0.885,1.526,0.488,93.333,640.000,1.000
3184.649,-3357.088,-34480.814,-12202.508,-7679.705,-11447.850,-12686.958,-27481.394,-0.138,1.000,0.061,0.885,1.495,0.549,93.333,641.000,1.000
3185.985,-3304.830,-34318.639,-12344.688,-7696.790,-11360.773,-12723.398,-27753.909,-0.140,0.998,0.064,1.007,1.465,0.519,93.333,642.000,1.000
3187.944,-3247.172,-34148.319,-12482.944,-7708.033,-11268.054,-12751.699,-28012.707,-0.142,0.999,0.065,1.007,1.404,0.427,93.333,643.000,1.000
3192.563,-3176.053,-33952.025,-12591.257,-7689.338,-11153.429,-12748.280,-28220.968,-0.143,0.998,0.064,0.946,1.373,0.397,93.333,644.000,1.000
3197.197,-3093.619,-33732.847,-12670.474,-7643.932,-11018.916,-12716.902,-28380.352,-0.143,0.998,0.065,0.946,1.343,0.275,93.333,645.000,1.000
3200.429,-3005.846,-33506.028,-12741.453,-7592.387,-10877.312,-12679.157,-28521.466,-0.143,0.997,0.066,0.977,1.343,0.244,93.333,646.000,1.000
3204.850,-2910.979,-33269.829,-12804.023,-7532.945,-10726.747,-12634.336,-28644.007,-0.142,0.995,0.066,0.885,1.373,0.153,93.333,647.000,1.000
3211.614,-2804.289,-33010.346,-12838.399,-7446.181,-10555.114,-12562.785,-28718.773,-0.141,0.996,0.067,0.854,1.312,0.092,93.333,648.000,1.000
3217.351,-2689.709,-32730.379,-12845.144,-7334.384,-10365.825,-12464.684,-28746.400,-0.140,0.997,0.063,0.824,1.312,0.092,93.333,649.000,1.000
3219.581,-2576.204,-32447.746,-12847.709,-7221.341,-10176.299,-12360.793,-28761.251,-0.139,0.996,0.067,0.885,1.312,0.061,93.333,650.000,1.000
3221.054,-2464.475,-32165.287,-12851.348,-7111.801,-9990.358,-12253.322,-28771.165,-0.139,0.996,0.063,0.916,1.373,0.061,93.333,651.000,1.000
3225.110,-2347.346,-31867.694,-12833.997,-6985.002,-9793.838,-12120.139,-28744.322,-0.140,0.996,0.065,0.977,1.343,0.031,93.333,652.000,1.000
3230.040,-2222.688,-31550.828,-12786.201,-6833.712,-9580.635,-11954.253,-28668.010,-0.138,0.997,0.065,1.007,1.343,-0.092,93.333,653.000,1.000
3232.289,-2095.506,-31228.968,-12726.395,-6676.141,-9361.263,-11775.992,-28570.611,-0.141,0.997,0.067,0.946,1.373,0.031,93.333,654.000,1.000
3232.550,-1966.926,-30907.334,-12664.612,-6519.989,-9140.154,-11596.028,-28467.584,-0.141,0.995,0.067,0.916,1.434,0.031,93.333,655.000,1.000
3233.716,-1832.531,-30572.756,-12584.390,-6348.056,-8906.736,-11399.087,-28334.558,-0.144,0.996,0.069,1.068,1.373,0.061,93.333,656.000,1.000
3234.824,-1693.771,-30220.901,-12477.334,-6153.498,-8657.974,-11178.554,-28158.461,-0.144,0.994,0.068,1.099,1.373,0.000,93.333,657.000,1.000
3232.407,-1560.112,-29868.981,-12364.810,-5958.279,-8409.108,-10956.066,-27969.872,-0.146,0.995,0.068,1.160,1.312,-0.031,93.333,658.000,1.000
3226.640,-1436.146,-29529.202,-12264.692,-5778.695,-8170.559,-10748.152,-27794.264,-0.145,0.995,0.066,1.221,1.190,0.061,93.333,659.000,1.000
3220.837,-1316.153,-29191.005,-12163.771,-5600.475,-7932.481,-10541.034,-27611.538,-0.144,0.994,0.062,1.343,1.160,0.153,93.333,660.000,1.000
3215.472,-1195.498,-28843.665,-12046.133,-5408.503,-7685.074,-10319.578,-27398.181,-0.143,0.994,0.065,1.373,1.190,0.122,93.333,661.000,1.000
3208.006,-1077.989,-28496.345,-11924.006,-5215.257,-7437.054,-10095.703,-27172.915,-0.143,0.993,0.063,1.434,1.190,0.061,93.333,662.000,1.000
3198.784,-966.365,-28158.557,-11813.606,-5035.359,-7198.401,-9883.417,-26960.900,-0.142,0.993,0.066,1.526,1.160,0.122,93.333,663.000,1.000
3191.566,-854.428,-27818.753,-11701.770,-4854.855,-6959.911,-9668.315,-26744.131,-0.142,0.994,0.065,1.617,1.160,0.092,93.333,664.000,1.000
3187.184,-735.981,-27462.394,-11566.587,-4653.711,-6707.744,-9430.198,-26491.442,-0.142,0.993,0.065,1.740,1.038,0.092,93.333,665.000,1.000
3182.036,-614.070,-27096.567,-11414.330,-4440.163,-6445.933,-9177.805,-26212.730,-0.142,0.996,0.064,1.831,1.068,0.183,93.333,666.000,1.000
3174.308,-493.826,-26735.586,-11264.748,-4233.381,-6185.832,-8931.478,-25937.211,-0.142,0.997,0.065,1.953,1.007,0.183,93.333,667.000,1.000
3166.428,-373.259,-26374.910,-11113.593,-4027.823,-5923.991,-8686.485,-25658.094,-0.141,0.998,0.065,1.923,1.038,0.153,93.333,668.000,1.000
3159.515,-249.726,-26002.353,-10943.361,-3806.550,-5651.028,-8425.418,-25348.471,-0.143,0.995,0.069,1.953,1.129,0.244,93.333,669.000,1.000
3150.618,-129.109,-25625.040,-10761.621,-3577.989,-5374.315,-8155.538,-25018.300,-0.142,0.997,0.065,1.953,1.190,0.214,93.333,670.000,1.000
3138.073,-18.664,-25260.381,-10593.217,-3365.592,-5109.819,-7899.855,-24703.735,-0.140,0.998,0.063,1.984,1.099,0.305,93.333,671.000,1.000
3124.857,84.595,-24906.848,-10438.830,-3168.002,-4856.134,-7657.737,-24406.407,-0.140,0.999,0.063,2.014,1.099,0.275,93.333,672.000,1.000
3113.576,188.472,-24548.721,-10276.345,-2963.446,-4598.336,-7408.426,-24094.863,-0.139,0.999,0.062,1.984,1.129,0.397,93.333,673.000,1.000
3102.358,292.508,-24185.912,-10102.540,-2750.330,-4334.994,-7150.850,-23765.312,-0.140,1.000,0.064,2.014,1.221,0.366,93.333,674.000,1.000
3089.131,390.538,-23833.507,-9938.139,-2549.060,-4079.322,-6905.536,-23448.895,-0.137,1.001,0.062,2.045,1.251,0.336,93.333,675.000,1.000
3075.885,483.013,-23492.781,-9788.417,-2363.151,-3834.038,-6675.931,-23153.517,-0.135,1.000,0.065,2.014,1.251,0.366,93.333,676.000,1.000
3064.595,575.359,-23148.839,-9634.458,-2173.631,-3587.967,-6442.665,-22850.656,-0.135,0.998,0.065,1.923,1.251,0.336,93.333,677.000,1.000
3052.481,665.572,-22799.574,-9471.597,-1977.268,-3340.277,-6201.919,-22532.199,-0.135,0.997,0.062,2.014,1.434,0.366,93.333,678.000,1.000
3035.969,745.015,-22461.402,-9322.167,-1796.154,-3105.629,-5975.627,-22230.143,-0.135,0.994,0.060,1.892,1.495,0.336,93.333,679.000,1.000
3016.541,812.121,-22140.315,-9197.341,-1639.401,-2889.166,-5773.365,-21960.890,-0.137,0.992,0.060,1.923,1.587,0.305,93.333,680.000,1.000
2998.024,874.756,-21821.326,-9077.966,-1487.202,-2677.075,-5575.815,-21696.726,-0.139,0.992,0.061,1.953,1.678,0.275,93.333,681.000,1.000
2980.373,937.331,-21495.444,-8949.539,-1326.494,-2460.461,-5369.948,-21416.963,-0.140,0.992,0.061,1.984,1.617,0.183,93.333,682.000,1.000
2961.027,995.881,-21174.265,-8826.717,-1172.355,-2249.232,-5170.788,-21143.794,-0.141,0.992,0.065,2.167,1.648,0.122,93.333,683.000,1.000
2940.796,1048.821,-20865.877,-8723.045,-1036.635,-2051.533,-4990.504,-20897.371,-0.142,0.993,0.060,2.197,1.587,0.183,93.333,684.000,1.000
2922.964,1102.044,-20557.964,-8623.762,-903.813,-1857.987,-4813.818,-20655.544,-0.142,0.995,0.056,2.258,1.526,0.031,93.333,685.000,1.000
2907.140,1158.449,-20240.001,-8512.878,-759.647,-1659.998,-4626.099,-20394.065,-0.142,0.994,0.059,2.258,1.404,-0.122,93.333,686.000,1.000
2889.518,1212.205,-19922.484,-8403.020,-618.220,-1466.581,-4440.865,-20131.284,-0.140,0.994,0.058,2.258,1.495,-0.183,93.333,687.000,1.000
2869.466,1259.604,-19616.478,-8311.036,-495.470,-1286.940,-4274.082,-19892.587,-0.138,0.993,0.060,2.289,1.526,-0.244,93.333,688.000,1.000
2850.485,1306.813,-19311.694,-8224.762,-378.135,-1111.247,-4112.924,-19660.843,-0.139,0.994,0.059,2.258,1.617,-0.244,93.333,689.000,1.000
2833.702,1359.881,-18994.631,-8123.870,-246.574,-926.462,-3937.920,-19406.305,-0.139,0.995,0.058,2.289,1.587,-0.275,93.333,690.000,1.000
2815.787,1414.715,-18673.591,-8016.965,-109.924,-738.987,-3758.069,-19141.175,-0.140,0.995,0.057,2.289,1.434,-0.336,93.333,691.000,1.000
2794.976,1464.541,-18364.231,-7926.355,10.996,-562.931,-3594.099,-18897.665,-0.141,0.999,0.058,2.350,1.526,-0.305,93.333,692.000,1.000
2773.821,1510.637,-18062.273,-7848.602,120.939,-395.799,-3441.150,-18670.338,-0.141,1.000,0.060,2.411,1.495,-0.366,93.333,693.000,1.000
2753.696,1557.150,-17753.640,-7763.533,238.771,-225.964,-3279.987,-18429.519,-0.143,1.001,0.060,2.319,1.404,-0.244,93.333,694.000,1.000
2731.847,1601.225,-17442.239,-7673.691,359.980,-56.522,-3114.767,-18179.292,-0.142,1.001,0.061,2.289,1.465,-0.244,93.333,695.000,1.000
2706.869,1638.211,-17142.768,-7599.611,464.503,100.253,-2965.789,-17950.408,-0.144,1.001,0.057,2.258,1.343,-0.305,93.333,696.000,1.000
2682.181,1671.815,-16852.515,-7540.465,554.858,247.100,-2831.186,-17742.056,-0.144,1.001,0.057,2.045,1.312,-0.397,93.333,697.000,1.000
2660.335,1708.133,-16556.552,-7475.860,651.314,397.308,-2690.995,-17524.058,-0.143,1.003,0.060,1.953,1.221,-0.488,93.333,698.000,1.000
2638.262,1742.844,-16257.858,-7407.041,751.529,548.142,-2547.432,-17297.625,-0.144,1.001,0.059,1.984,1.160,-0.488,93.333,699.000,1.000
2612.461,1765.674,-15975.718,-7360.142,830.374,681.859,-2425.851,-17100.921,-0.142,1.002,0.062,1.801,1.099,-0.519,93.333,700.000,1.000
2584.985,1775.920,-15713.688,-7343.327,882.126,794.225,-2332.810,-16946.500,-0.141,1.003,0.060,1.617,1.099,-0.458,93.333,701.000,1.000
2559.534,1782.302,-15455.153,-7335.527,928.348,899.506,-2247.424,-16804.258,-0.140,1.001,0.058,1.434,1.068,-0.336,93.333,702.000,1.000
2535.046,1788.140,-15193.872,-7326.413,977.950,1003.899,-2160.795,-16659.352,-0.139,1.001,0.062,1.404,1.068,-0.397,93.333,703.000,1.000
2508.437,1788.674,-14942.583,-7332.872,1013.955,1096.867,-2089.577,-16536.192,-0.141,0.998,0.060,1.251,1.038,-0.336,93.333,704.000,1.000
2481.007,1784.219,-14704.236,-7362.018,1030.818,1175.581,-2038.877,-16444.427,-0.141,0.995,0.058,1.221,1.068,-0.305,93.333,705.000,1.000
2456.660,1784.298,-14459.851,-7390.288,1052.082,1256.267,-1984.195,-16348.668,-0.142,0.994,0.060,1.251,1.068,-0.214,93.333,706.000,1.000
2435.596,1795.766,-14195.405,-7397.357,1095.718,1351.610,-1906.154,-16218.725,-0.143,0.995,0.060,1.190,1.068,-0.183,93.333,707.000,1.000
2415.015,1817.112,-13918.210,-7391.908,1151.539,1456.147,-1814.030,-16067.512,-0.141,0.994,0.058,1.343,0.977,-0.122,93.333,708.000,1.000
2394.984,1848.278,-13634.104,-7382.809,1211.321,1565.544,-1716.192,-15908.279,-0.142,0.994,0.058,1.343,0.977,-0.031,93.333,709.000,1.000
2378.290,1896.168,-13329.710,-7351.356,1293.706,1692.356,-1594.428,-15713.612,-0.145,0.993,0.057,1.312,0.977,-0.092,93.333,710.000,1.000
2364.499,1964.591,-12993.691,-7277.749,1416.120,1847.859,-1431.003,-15454.499,-0.146,0.993,0.058,1.343,0.854,-0.031,93.333,711.000,1.000
2349.613,2047.308,-12637.102,-7172.805,1565.655,2023.701,-1237.903,-15146.962,-0.145,0.994,0.060,1.312,0.946,0.031,93.333,712.000,1.000
2332.565,2137.720,-12274.127,-7055.439,1723.523,2208.076,-1033.271,-14818.856,-0.143,0.995,0.061,1.251,0.885,0.031,93.333,713.000,1.000
2316.662,2237.773,-11898.699,-6917.805,1897.848,2406.634,-808.937,-14458.694,-0.144,0.994,0.060,1.404,0.916,0.000,93.333,714.000,1.000
2303.231,2350.333,-11500.210,-6742.900,2104.291,2629.488,-549.411,-14041.597,-0.144,0.994,0.059,1.465,0.854,0.092,93.333,715.000,1.000
2289.096,2469.838,-11088.627,-6541.439,2331.422,2868.874,-266.251,-13582.998,-0.147,0.996,0.061,1.495,0.824,0.061,93.333,716.000,1.000
2272.223,2588.744,-10681.764,-6338.501,2556.185,3109.409,17.337,-13118.449,-0.144,0.995,0.059,1.495,0.793,0.122,93.333,717.000,1.000
2254.886,2707.647,-10277.829,-6133.714,2781.218,3352.228,303.883,-12645.746,-0.145,0.995,0.059,1.465,0.763,0.183,93.333,718.000,1.000
2238.744,2830.214,-9863.738,-5907.938,3024.780,3608.389,611.706,-12136.468,-0.144,0.994,0.060,1.404,0.763,0.183,93.333,719.000,1.000
2221.591,2953.302,-9442.522,-5662.155,3283.096,3874.913,936.956,-11594.250,-0.143,0.996,0.061,1.495,0.702,0.183,93.333,720.000,1.000
2202.032,3071.906,-9027.755,-5414.696,3536.407,4139.228,1259.253,-11050.105,-0.141,0.995,0.060,1.312,0.702,0.214,93.333,721.000,1.000
2182.963,3189.713,-8616.075,-5162.982,3786.986,4403.491,1580.057,-10504.120,-0.141,0.995,0.059,1.282,0.671,0.183,93.333,722.000,1.000
2166.812,3314.461,-8190.776,-4883.738,4056.773,4682.252,1921.053,-9923.865,-0.141,0.996,0.060,1.160,0.641,0.244,93.333,723.000,1.000
2151.128,3445.193,-7751.387,-4573.712,4347.669,4976.534,2284.468,-9303.861,-0.141,0.996,0.059,1.129,0.580,0.214,93.333,724.000,1.000
2132.870,3574.132,-7314.687,-4255.853,4637.981,5271.978,2648.800,-8675.752,-0.141,0.997,0.059,1.160,0.641,0.153,93.333,725.000,1.000
2113.741,3699.739,-6885.101,-3938.980,4921.645,5564.528,3007.712,-8050.491,-0.140,0.996,0.053,1.038,0.610,0.183,93.333,726.000,1.000
2096.745,3827.111,-6449.620,-3605.647,5216.842,5865.667,3379.067,-7401.286,-0.140,0.997,0.060,1.007,0.641,0.061,93.333,727.000,1.000
2080.262,3955.561,-6006.437,-3250.199,5527.999,6177.512,3767.215,-6719.536,-0.139,0.996,0.060,1.007,0.610,0.183,93.333,728.000,1.000
2060.716,4077.241,-5572.944,-2894.845,5832.933,6484.924,4149.893,-6038.352,-0.137,0.997,0.062,1.038,0.641,0.214,93.333,729.000,1.000
2038.995,4189.856,-5157.053,-2552.738,6120.107,6780.248,4515.437,-5378.078,-0.137,0.999,0.060,1.038,0.671,0.305,93.333,730.000,1.000
2018.803,4300.101,-4744.472,-2206.287,6407.310,7075.343,4881.848,-4713.822,-0.137,0.999,0.062,0.916,0.793,0.305,93.333,731.000,1.000
2000.175,4411.838,-4325.034,-1840.530,6707.743,7379.259,5262.881,-4024.030,-0.137,0.998,0.060,0.854,0.854,0.305,93.333,732.000,1.000
1980.214,4521.150,-3909.051,-1469.163,7007.081,7683.354,5644.446,-3328.947,-0.137,0.999,0.059,0.885,0.885,0.336,93.333,733.000,1.000
1959.170,4626.680,-3504.458,-1105.712,7293.399,7980.573,6014.146,-2648.602,-0.137,0.999,0.057,0.793,0.824,0.427,93.333,734.000,1.000
1940.022,4734.623,-3099.075,-735.278,7582.517,8281.327,6387.200,-1961.152,-0.136,0.999,0.056,0.793,0.916,0.458,93.333,735.000,1.000
1922.364,4848.133,-2682.025,-340.678,7890.350,8595.332,6779.475,-1240.969,-0.138,1.000,0.053,0.732,1.038,0.458,93.333,736.000,1.000
1902.507,4961.244,-2263.859,66.099,8204.090,8913.648,7178.495,-505.055,-0.137,1.000,0.055,0.732,1.221,0.397,93.333,737.000,1.000
1880.188,5069.865,-1856.566,467.028,8507.090,9225.668,7567.709,220.291,-0.137,1.000,0.056,0.641,1.129,0.427,93.333,738.000,1.000
1859.578,5180.001,-1450.281,873.036,8811.298,9539.908,7958.929,950.671,-0.139,1.001,0.057,0.671,1.221,0.458,93.333,739.000,1.000
1842.415,5297.451,-1030.804,1304.746,9135.876,9869.152,8371.361,1715.856,-0.138,1.000,0.057,0.671,1.282,0.366,93.333,740.000,1.000
1825.360,5417.037,-606.492,1753.654,9470.743,10206.419,8795.024,2503.252,-0.138,0.998,0.057,0.702,1.251,0.336,93.333,741.000,1.000
1805.815,5530.251,-195.417,2195.135,9792.273,10535.550,9205.925,3276.997,-0.137,0.999,0.056,0.702,1.312,0.275,93.333,742.000,1.000
1785.346,5637.203,203.580,2629.093,10102.196,10856.821,9605.118,4037.450,-0.138,0.998,0.058,0.610,1.312,0.244,93.333,743.000,1.000
1765.140,5742.242,603.770,3074.041,10418.862,11181.425,10010.687,4812.138,-0.139,0.997,0.059,0.702,1.343,0.183,93.333,744.000,1.000
1742.893,5843.276,1002.633,3527.804,10739.242,11507.063,10419.744,5597.714,-0.139,0.998,0.058,0.671,1.312,0.122,93.333,745.000,1.000
1717.364,5935.684,1386.187,3969.580,11043.710,11821.286,10812.435,6363.015,-0.141,0.996,0.061,0.732,1.343,0.031,93.333,746.000,1.000
1691.712,6022.801,1756.625,4399.112,11333.880,12125.782,11189.715,7107.084,-0.137,0.997,0.058,0.885,1.312,0.000,93.333,747.000,1.000
1668.782,6111.687,2129.916,4838.283,11631.112,12434.786,11572.713,7861.980,-0.138,0.997,0.058,0.885,1.373,-0.122,93.333,748.000,1.000
1646.979,6201.263,2507.263,5291.462,11937.721,12749.878,11964.328,8634.139,-0.138,0.996,0.059,0.977,1.251,-0.092,93.333,749.000,1.000
1624.225,6284.816,2873.767,5738.440,12233.235,13057.876,12344.833,9393.352,-0.139,0.996,0.058,1.068,1.465,-0.153,93.333,750.000,1.000
1602.096,6361.939,3226.283,6172.395,12512.231,13355.014,12709.117,10128.967,-0.139,0.995,0.059,1.038,1.434,-0.061,93.333,751.000,1.000
1582.187,6437.863,3578.085,6611.409,12792.901,13651.997,13075.422,10867.638,-0.139,0.994,0.058,1.129,1.465,-0.122,93.333,752.000,1.000
1561.675,6512.037,3931.929,7062.202,13080.675,13951.059,13449.227,11619.886,-0.139,0.995,0.058,1.190,1.465,-0.183,93.333,753.000,1.000
1537.004,6578.003,4272.874,7504.771,13355.766,14239.124,13810.571,12356.810,-0.142,0.996,0.061,1.312,1.465,-0.183,93.333,754.000,1.000
1509.778,6635.745,4595.781,7928.234,13609.285,14511.380,14150.067,13062.425,-0.139,0.997,0.060,1.312,1.495,-0.153,93.333,755.000,1.000
1484.194,6693.794,4916.786,8351.833,13861.126,14781.801,14487.303,13764.740,-0.141,0.996,0.060,1.343,1.404,-0.153,93.333,756.000,1.000
1460.371,6756.349,5246.570,8791.518,14125.659,15060.143,14836.878,14486.909,-0.141,0.995,0.061,1.221,1.373,-0.244,93.333,757.000,1.000
1435.376,6818.020,5573.811,9233.323,14388.047,15336.938,15184.130,15207.926,-0.143,0.995,0.061,1.282,1.343,-0.244,93.333,758.000,1.000
1409.305,6874.038,5887.261,9660.632,14632.873,15602.249,15513.116,15902.627,-0.142,0.993,0.057,1.343,1.282,-0.244,93.333,759.000,1.000
1384.458,6924.679,6192.215,10080.435,14867.929,15860.158,15830.724,16580.854,-0.140,0.992,0.056,1.434,1.251,-0.183,93.333,760.000,1.000
1359.110,6964.851,6489.025,10496.615,15096.388,16109.968,16139.474,17248.813,-0.139,0.995,0.057,1.556,1.312,-0.122,93.333,761.000,1.000
1328.180,6980.262,6755.684,10881.370,15291.076,16330.521,16411.701,17866.869,-0.141,0.997,0.057,1.617,1.343,-0.061,93.333,762.000,1.000
1290.834,6962.307,6972.976,11204.731,15425.599,16502.476,16620.349,18392.155,-0.140,0.997,0.056,1.648,1.343,0.000,93.333,763.000,1.000
1252.097,6919.816,7152.803,11476.435,15513.123,16634.626,16778.057,18839.604,-0.140,0.994,0.054,1.617,1.312,-0.031,93.333,764.000,1.000
1215.734,6868.734,7321.262,11728.502,15586.095,16750.250,16917.443,19256.594,-0.139,0.991,0.054,1.556,1.373,0.061,93.333,765.000,1.000
1180.874,6817.175,7486.620,11970.884,15653.687,16858.389,17048.396,19658.064,-0.140,0.989,0.052,1.709,1.404,0.183,93.333,766.000,1.000
1147.031,6767.513,7644.779,12195.553,15708.355,16956.950,17163.868,20032.275,-0.143,0.989,0.053,1.892,1.404,0.122,93.333,767.000,1.000
1116.469,6723.659,7802.186,12410.002,15757.843,17051.948,17271.645,20389.880,-0.144,0.991,0.055,2.045,1.343,0.000,93.333,768.000,1.000
1089.094,6684.891,7966.803,12628.824,15814.710,17149.731,17384.332,20751.869,-0.146,0.995,0.058,2.045,1.221,-0.122,93.333,769.000,1.000
1060.198,6637.991,8123.733,12837.226,15861.999,17235.714,17485.118,21096.228,-0.148,0.999,0.056,2.075,1.190,-0.244,93.333,770.000,1.000
1026.346,6567.041,8246.169,12999.350,15864.812,17284.139,17538.789,21370.121,-0.149,1.000,0.057,2.075,1.038,-0.397,93.333,771.000,1.000
989.467,6468.998,8328.630,13103.882,15814.724,17288.209,17536.054,21556.882,-0.148,1.002,0.058,1.801,0.824,-0.519,93.333,772.000,1.000
952.033,6350.927,8386.310,13168.907,15731.231,17260.708,17495.742,21683.460,-0.145,1.002,0.054,1.801,0.702,-0.610,93.333,773.000,1.000
912.530,6216.275,8424.611,13201.228,15621.365,17207.264,17424.821,21760.819,-0.144,1.003,0.053,1.678,0.732,-0.610,93.333,774.000,1.000
869.953,6065.972,8436.247,13187.842,15473.921,17122.807,17312.157,21770.913,-0.142,1.002,0.057,1.495,0.641,-0.671,93.333,775.000,1.000
828.905,5911.040,8430.003,13134.898,15297.782,17016.272,17166.527,21723.473,-0.141,0.999,0.057,1.465,0.610,-0.671,93.333,776.000,1.000
795.054,5770.836,8434.884,13079.010,15129.891,16914.552,17025.082,21672.924,-0.138,0.997,0.052,1.343,0.610,-0.641,93.333,777.000,1.000
768.241,5656.776,8468.537,13046.107,14993.909,16834.836,16912.532,21658.239,-0.138,0.999,0.051,1.282,0.610,-0.519,93.333,778.000,1.000
744.685,5567.134,8524.246,13029.138,14881.031,16772.464,16821.668,21669.984,-0.137,0.998,0.054,1.312,0.610,-0.488,93.333,779.000,1.000
723.362,5498.100,8595.745,13019.931,14782.572,16722.247,16745.169,21696.685,-0.138,0.996,0.052,1.190,0.702,-0.488,93.333,780.000,1.000
705.027,5448.481,8690.312,13031.241,14709.378,16690.599,16694.681,21756.730,-0.141,0.998,0.052,1.160,0.763,-0.366,93.333,781.000,1.000
686.732,5410.526,8805.606,13066.874,14661.610,16675.824,16670.599,21854.333,-0.142,1.000,0.052,1.068,0.854,-0.275,93.333,782.000,1.000
663.292,5368.161,8916.993,13098.934,14609.539,16656.447,16642.624,21946.636,-0.142,0.998,0.053,0.946,0.854,-0.244,93.333,783.000,1.000
634.255,5311.513,9005.109,13101.097,14528.410,16614.760,16584.590,21993.436,-0.143,0.998,0.054,0.916,0.946,-0.092,93.333,784.000,1.000
604.123,5245.036,9078.084,13082.254,14429.007,16556.941,16506.000,22007.371,-0.143,0.999,0.054,0.885,0.977,0.000,93.333,785.000,1.000
575.338,5175.903,9150.258,13061.711,14330.594,16495.422,16426.086,22017.816,-0.144,0.998,0.054,0.854,0.885,0.000,93.333,786.000,1.000
546.316,5103.480,9217.214,13033.044,14226.864,16426.826,16339.411,22017.182,-0.143,0.997,0.053,0.763,0.854,0.000,93.333,787.000,1.000
516.879,5026.590,9270.847,12981.677,14105.220,16344.304,16233.876,21985.484,-0.144,0.998,0.055,0.854,0.671,-0.092,93.333,788.000,1.000
489.773,4951.449,9321.899,12919.021,13978.412,16257.266,16122.092,21939.757,-0.145,0.998,0.056,0.854,0.732,0.000,93.333,789.000,1.000
465.294,4883.375,9384.493,12865.890,13865.641,16178.415,16023.263,21909.871,-0.145,0.998,0.053,0.854,0.763,0.031,93.333,790.000,1.000
439.771,4817.595,9450.779,12815.178,13757.521,16101.308,15928.385,21884.281,-0.144,0.997,0.054,0.763,0.702,-0.031,93.333,791.000,1.000
411.574,4747.059,9504.180,12744.479,13631.666,16011.227,15815.371,21829.241,-0.143,0.996,0.056,0.793,0.641,0.031,93.333,792.000,1.000
383.872,4673.654,9548.276,12656.700,13492.006,15910.731,15688.259,21749.057,-0.142,0.997,0.055,0.702,0.519,0.031,93.333,793.000,1.000
359.158,4603.229,9599.176,12574.382,13360.520,15813.931,15569.275,21677.603,-0.143,0.999,0.056,0.671,0.549,0.000,93.333,794.000,1.000
335.676,4534.894,9656.713,12499.337,13237.971,15721.267,15459.450,21618.019,-0.143,0.998,0.057,0.580,0.549,0.031,93.333,795.000,1.000
311.890,4464.685,9707.663,12412.615,13106.354,15621.549,15340.534,21542.012,-0.141,0.998,0.053,0.397,0.610,-0.061,93.333,796.000,1.000
289.887,4395.560,9753.066,12313.144,12966.387,15515.852,15212.494,21447.327,-0.140,0.998,0.054,0.366,0.702,0.092,93.333,797.000,1.000
270.811,4333.364,9806.744,12221.059,12837.886,15416.884,15094.578,21363.611,-0.138,0.998,0.055,0.458,0.641,0.183,93.333,798.000,1.000
250.911,4275.126,9867.152,12138.750,12721.528,15324.217,14987.403,21295.185,-0.139,0.997,0.058,0.397,0.671,0.122,93.333,799.000,1.000
226.422,4212.023,9916.438,12043.464,12594.546,15222.512,14868.256,21209.294,-0.137,0.998,0.060,0.214,0.702,0.153,93.333,800.000,1.000
199.368,4143.348,9950.906,11927.321,12450.475,15107.903,14730.662,21094.342,-0.139,1.000,0.060,0.183,0.702,0.153,93.333,801.000,1.000
174.066,4076.723,9987.417,11811.142,12309.918,14994.326,14595.589,20980.646,-0.139,1.000,0.061,0.153,0.824,0.183,93.333,802.000,1.000
150.507,4014.158,10033.425,11705.997,12182.112,14887.797,14473.163,20884.693,-0.138,0.998,0.059,0.061,0.916,0.153,93.333,803.000,1.000
126.147,3949.382,10075.446,11593.739,12048.620,14776.189,14345.661,20780.350,-0.137,0.996,0.058,0.000,1.007,0.061,93.333,804.000,1.000
101.807,3880.770,10106.229,11462.368,11899.048,14653.079,14202.617,20649.985,-0.137,0.995,0.059,-0.122,1.068,0.122,93.333,805.000,1.000
80.293,3815.312,10139.077,11329.742,11751.501,14530.691,14061.637,20519.153,-0.140,0.996,0.060,-0.153,1.068,0.153,93.333,806.000,1.000
60.690,3756.307,10182.759,11211.315,11619.551,14417.754,13935.938,20409.828,-0.141,0.996,0.060,-0.214,1.099,0.000,93.333,807.000,1.000
39.442,3697.607,10224.323,11091.886,11487.342,14303.440,13809.359,20299.493,-0.142,0.996,0.060,-0.244,1.099,-0.061,93.333,808.000,1.000
16.553,3634.850,10252.181,10953.703,11339.107,14177.119,13665.629,20162.408,-0.142,0.996,0.059,-0.244,1.038,-0.153,93.333,809.000,1.000
-4.532,3572.867,10276.683,10808.548,11188.088,14047.347,13517.671,20016.266,-0.142,0.997,0.060,-0.427,1.038,-0.183,93.333,810.000,1.000
-23.440,3515.666,10309.944,10674.414,11051.087,13925.141,13382.658,19887.558,-0.142,0.997,0.058,-0.366,0.977,-0.183,93.333,811.000,1.000
-43.685,3458.313,10343.134,10541.391,10916.874,13803.539,13250.082,19761.460,-0.142,0.996,0.058,-0.366,1.007,-0.214,93.333,812.000,1.000
-66.064,3396.525,10364.203,10391.383,10768.168,13672.135,13103.005,19610.879,-0.142,0.997,0.060,-0.458,0.946,-0.244,93.333,813.000,1.000
-87.044,3335.613,10382.285,10234.133,10615.500,13538.493,12951.942,19449.725,-0.143,0.996,0.061,-0.549,1.007,-0.244,93.333,814.000,1.000
-105.319,3281.284,10412.133,10090.948,10478.592,13415.148,12816.758,19309.397,-0.142,0.998,0.061,-0.641,1.038,-0.214,93.333,815.000,1.000
-124.304,3229.253,10447.193,9956.020,10349.717,13296.120,12689.877,19181.576,-0.143,1.001,0.060,-0.610,0.885,-0.244,93.333,816.000,1.000
-145.965,3172.790,10471.197,9807.284,10207.347,13166.933,12549.334,19033.663,-0.141,0.997,0.063,-0.580,0.885,-0.244,93.333,817.000,1.000
-167.469,3113.935,10486.416,9646.241,10054.514,13029.675,12397.323,18867.690,-0.141,0.998,0.063,-0.641,0.885,-0.214,93.333,818.000,1.000
-186.578,3058.229,10506.750,9492.855,9910.998,12897.272,12253.240,18713.519,-0.142,0.998,0.063,-0.702,0.885,-0.153,93.333,819.000,1.000
-205.511,3003.757,10530.057,9346.266,9775.132,12768.706,12115.714,18570.751,-0.143,0.998,0.062,-0.702,0.885,0.000,93.333,820.000,1.000
-226.218,2945.238,10542.304,9185.817,9627.312,12631.777,11965.466,18409.182,-0.143,1.000,0.065,-0.763,0.854,0.000,93.333,821.000,1.000
-246.242,2885.187,10545.655,9010.883,9468.522,12487.774,11803.478,18227.007,-0.142,0.997,0.065,-0.824,0.854,0.122,93.333,822.000,1.000
-263.185,2830.232,10556.598,8844.010,9320.491,12350.628,11651.528,18056.291,-0.145,0.997,0.064,-0.793,0.763,0.244,93.333,823.000,1.000
-279.465,2778.404,10575.856,8689.686,9185.544,12220.812,11512.117,17903.259,-0.143,0.999,0.062,-0.793,0.763,0.275,93.333,824.000,1.000
-298.283,2721.121,10585.711,8524.815,9040.701,12082.578,11362.055,17734.209,-0.144,0.998,0.067,-0.671,0.702,0.244,93.333,825.000,1.000
-318.128,2657.048,10580.395,8338.945,8877.739,11930.509,11192.526,17534.277,-0.144,0.997,0.068,-0.732,0.549,0.336,93.333,826.000,1.000
-335.970,2593.353,10574.394,8150.780,8716.070,11777.421,11022.757,17331.568,-0.144,0.995,0.066,-0.702,0.580,0.427,93.333,827.000,1.000
-353.173,2533.203,10575.059,7972.617,8566.467,11630.643,10864.077,17144.492,-0.143,0.994,0.067,-0.702,0.549,0.427,93.333,828.000,1.000
-372.934,2472.952,10571.586,7790.615,8414.300,11481.610,10702.571,16952.227,-0.143,0.995,0.066,-0.671,0.641,0.488,93.333,829.000,1.000
-393.863,2413.165,10560.221,7597.026,8252.604,11327.241,10531.640,16742.469,-0.143,0.995,0.068,-0.610,0.610,0.519,93.333,830.000,1.000
-411.812,2361.144,10556.558,7411.670,8100.920,11181.089,10371.091,16544.154,-0.140,0.995,0.066,-0.519,0.580,0.427,93.333,831.000,1.000
-426.868,2318.806,10569.833,7249.795,7972.524,11051.372,10234.627,16380.662,-0.141,0.995,0.064,-0.488,0.519,0.397,93.333,832.000,1.000
-442.692,2278.547,10586.512,7095.352,7850.674,10926.333,10105.679,16229.446,-0.140,0.994,0.067,-0.458,0.488,0.397,93.333,833.000,1.000
-459.504,2236.103,10594.639,6930.554,7719.257,10795.291,9967.681,16064.218,-0.139,0.995,0.066,-0.397,0.488,0.488,93.333,834.000,1.000
-473.737,2197.638,10604.728,6768.032,7591.879,10667.440,9833.729,15902.510,-0.138,0.993,0.066,-0.305,0.549,0.549,93.333,835.000,1.000
-484.799,2168.583,10629.332,6626.957,7486.144,10554.393,9721.603,15771.785,-0.137,0.993,0.067,-0.183,0.519,0.610,93.333,836.000,1.000
-496.190,2145.285,10660.402,6498.999,7392.138,10449.921,9622.072,15659.603,-0.138,0.993,0.067,-0.092,0.610,0.671,93.333,837.000,1.000
-508.966,2124.614,10686.953,6368.181,7294.392,10344.851,9520.146,15542.267,-0.137,0.994,0.066,0.031,0.671,0.580,93.333,838.000,1.000
-519.876,2112.711,10719.361,6246.750,7205.660,10248.530,9428.803,15437.852,-0.137,0.997,0.068,0.092,0.671,0.549,93.333,839.000,1.000
-527.427,2115.858,10773.910,6158.628,7148.264,10175.747,9370.716,15382.602,-0.138,0.997,0.067,0.153,0.702,0.580,93.333,840.000,1.000
-534.324,2130.198,10845.635,6100.233,7116.978,10122.859,9340.945,15372.759,-0.137,0.997,0.069,0.183,0.702,0.488,93.333,841.000,1.000
-541.863,2149.708,10919.977,6051.596,7092.466,10077.575,9319.863,15379.259,-0.137,0.997,0.069,0.244,0.793,0.458,93.333,842.000,1.000
-547.074,2178.039,11001.771,6017.402,7080.263,10044.372,9312.324,15407.373,-0.138,0.995,0.068,0.336,0.885,0.549,93.333,843.000,1.000
-548.114,2222.435,11107.647,6021.603,7102.366,10038.068,9340.001,15489.634,-0.135,0.996,0.066,0.427,0.946,0.458,93.333,844.000,1.000
-547.815,2280.918,11235.849,6065.386,7156.772,10057.114,9401.099,15625.367,-0.136,0.997,0.065,0.519,0.977,0.488,93.333,845.000,1.000
-548.627,2346.479,11369.787,6126.775,7220.745,10086.401,9473.162,15781.218,-0.135,0.997,0.067,0.610,1.038,0.458,93.333,846.000,1.000
