EEG 1,EEG 2,EEG 3,EEG 4,EEG 5,EEG 6,EEG 7,EEG 8,Accelerometer X,Accelerometer Y,Accelerometer Z,Gyroscope X,Gyroscope Y,Gyroscope Z,Battery Level,Counter,Validation Indicator
26.695,10.375,11.424,0.188,-5.500,-2.832,-8.492,-9.453,-0.117,0.726,-0.560,0.061,1.068,-0.610,80.000,4369.000,1.000
26.699,9.992,12.598,2.150,-4.513,-2.295,-7.418,-7.405,-0.115,0.726,-0.560,0.031,1.007,-0.641,80.000,4370.000,1.000
26.417,9.039,13.407,4.536,-3.470,-2.568,-6.126,-4.834,-0.117,0.726,-0.561,0.031,1.007,-0.580,80.000,4371.000,1.000
26.317,7.756,13.925,7.408,-2.517,-3.790,-4.998,-2.294,-0.117,0.726,-0.561,-0.031,1.007,-0.580,80.000,4372.000,1.000
26.430,6.403,14.177,10.344,-1.595,-5.706,-4.084,-0.109,-0.116,0.727,-0.558,0.000,0.946,-0.580,80.000,4373.000,1.000
26.639,5.275,14.121,12.543,-0.596,-7.869,-3.178,1.572,-0.116,0.728,-0.561,0.031,0.916,-0.519,80.000,4374.000,1.000
27.198,4.798,13.874,13.631,0.636,-9.726,-1.937,2.819,-0.117,0.727,-0.562,0.061,0.977,-0.549,80.000,4375.000,1.000
28.564,5.389,13.792,14.090,2.313,-10.570,-0.020,3.958,-0.118,0.728,-0.561,0.061,0.885,-0.458,80.000,4376.000,1.000
30.845,7.170,14.193,14.716,4.535,-9.697,2.634,5.339,-0.115,0.726,-0.560,0.183,0.916,-0.336,80.000,4377.000,1.000
33.614,9.825,15.029,15.811,7.102,-6.842,5.604,6.964,-0.117,0.725,-0.560,0.214,0.885,-0.305,80.000,4378.000,1.000
36.210,12.753,15.888,16.997,9.545,-2.482,8.125,8.405,-0.115,0.726,-0.563,0.244,0.793,-0.214,80.000,4379.000,1.000
38.079,15.372,16.390,17.682,11.364,2.367,9.584,9.164,-0.116,0.725,-0.559,0.336,0.854,-0.214,80.000,4380.000,1.000
38.964,17.314,16.511,17.557,12.273,6.661,9.925,9.052,-0.116,0.726,-0.560,0.397,0.854,-0.214,80.000,4381.000,1.000
38.891,18.359,16.405,16.645,12.184,9.587,9.501,8.208,-0.115,0.727,-0.560,0.549,0.824,-0.183,80.000,4382.000,1.000
37.912,18.211,15.929,14.989,10.986,10.554,8.569,6.869,-0.114,0.727,-0.558,0.549,0.824,-0.031,80.000,4383.000,1.000
35.814,16.464,14.528,12.465,8.487,9.289,7.058,5.212,-0.115,0.728,-0.560,0.519,0.916,-0.061,80.000,4384.000,1.000
32.284,12.966,11.785,8.962,4.731,6.115,4.844,3.365,-0.115,0.727,-0.560,0.549,0.946,0.061,80.000,4385.000,1.000
27.483,8.253,8.069,4.724,0.300,1.998,2.132,1.496,-0.114,0.727,-0.560,0.519,0.946,0.000,80.000,4386.000,1.000
22.183,3.410,4.386,0.372,-3.882,-1.874,-0.516,-0.205,-0.112,0.729,-0.558,0.549,1.007,-0.092,80.000,4387.000,1.000
17.044,-0.669,1.499,-3.441,-7.145,-4.782,-2.563,-1.601,-0.113,0.727,-0.560,0.702,1.129,-0.061,80.000,4388.000,1.000
11.944,-3.842,-0.707,-6.349,-9.443,-6.786,-3.885,-2.636,-0.115,0.727,-0.559,0.671,1.129,-0.031,80.000,4389.000,1.000
6.337,-6.554,-2.932,-8.273,-11.139,-8.391,-4.749,-3.367,-0.114,0.728,-0.561,0.702,1.160,-0.122,80.000,4390.000,1.000
0.101,-9.232,-5.702,-9.289,-12.559,-9.936,-5.472,-3.965,-0.114,0.727,-0.558,0.763,1.221,-0.092,80.000,4391.000,1.000
-6.340,-11.907,-8.978,-9.610,-13.809,-11.355,-6.195,-4.620,-0.114,0.728,-0.559,0.793,1.312,-0.244,80.000,4392.000,1.000
-12.425,-14.163,-12.191,-9.416,-14.756,-12.310,-6.880,-5.335,-0.113,0.727,-0.558,0.763,1.251,-0.244,80.000,4393.000,1.000
-17.470,-15.214,-14.399,-8.583,-14.997,-12.376,-7.407,-5.806,-0.114,0.727,-0.557,0.824,1.343,-0.214,80.000,4394.000,1.000
-20.603,-14.300,-14.664,-6.841,-14.040,-11.220,-7.686,-5.636,-0.115,0.726,-0.558,0.885,1.404,-0.244,80.000,4395.000,1.000
-21.279,-11.275,-12.661,-4.260,-11.677,-8.732,-7.694,-4.684,-0.113,0.727,-0.558,0.916,1.434,-0.244,80.000,4396.000,1.000
-19.955,-6.878,-9.091,-1.512,-8.262,-5.167,-7.427,-3.266,-0.114,0.728,-0.559,0.946,1.404,-0.366,80.000,4397.000,1.000
-17.955,-2.400,-5.415,0.410,-4.636,-1.217,-6.962,-2.039,-0.115,0.729,-0.557,0.916,1.404,-0.488,80.000,4398.000,1.000
-16.487,1.141,-2.810,0.967,-1.575,2.244,-6.418,-1.521,-0.115,0.729,-0.559,1.068,1.343,-0.549,80.000,4399.000,1.000
-15.904,3.577,-1.344,0.565,0.699,4.597,-5.793,-1.698,-0.115,0.726,-0.559,1.068,1.434,-0.488,80.000,4400.000,1.000
-15.977,5.249,-0.370,0.000,2.323,5.589,-5.074,-2.239,-0.116,0.726,-0.560,1.190,1.495,-0.488,80.000,4401.000,1.000
-16.592,6.188,0.443,-0.445,3.206,5.146,-4.537,-2.985,-0.115,0.728,-0.557,1.068,1.556,-0.488,80.000,4402.000,1.000
-17.908,5.917,0.853,-1.087,2.938,3.303,-4.690,-4.045,-0.117,0.728,-0.559,1.099,1.617,-0.488,80.000,4403.000,1.000
-19.963,4.078,0.575,-2.252,1.273,0.324,-5.817,-5.502,-0.116,0.728,-0.562,1.038,1.587,-0.458,80.000,4404.000,1.000
-22.536,0.911,-0.464,-3.995,-1.622,-3.308,-7.772,-7.304,-0.115,0.726,-0.563,1.190,1.465,-0.366,80.000,4405.000,1.000
-25.355,-2.900,-2.280,-6.343,-5.379,-7.081,-10.153,-9.406,-0.115,0.726,-0.560,1.282,1.434,-0.366,80.000,4406.000,1.000
-28.106,-6.543,-4.750,-9.427,-9.523,-10.484,-12.414,-11.714,-0.115,0.727,-0.557,1.160,1.465,-0.366,80.000,4407.000,1.000
-30.377,-9.376,-7.485,-13.261,-13.433,-13.044,-13.938,-13.945,-0.115,0.728,-0.562,1.221,1.587,-0.336,80.000,4408.000,1.000
-31.939,-11.260,-10.047,-17.488,-16.555,-14.593,-14.393,-15.783,-0.116,0.727,-0.559,1.251,1.495,-0.336,80.000,4409.000,1.000
-32.968,-12.546,-12.158,-21.406,-18.708,-15.399,-14.104,-17.250,-0.116,0.726,-0.557,1.373,1.526,-0.305,80.000,4410.000,1.000
-33.760,-13.608,-13.600,-24.265,-20.043,-15.855,-13.903,-18.762,-0.115,0.727,-0.558,1.404,1.465,-0.244,80.000,4411.000,1.000
-34.488,-14.490,-14.262,-25.633,-20.806,-16.074,-14.486,-20.686,-0.115,0.726,-0.559,1.343,1.495,-0.214,80.000,4412.000,1.000
-35.435,-15.074,-14.438,-25.606,-21.237,-15.941,-15.897,-22.838,-0.117,0.729,-0.561,1.312,1.556,-0.183,80.000,4413.000,1.000
-37.065,-15.478,-14.834,-24.764,-21.537,-15.518,-17.612,-24.482,-0.116,0.729,-0.561,1.495,1.617,-0.214,80.000,4414.000,1.000
-39.531,-16.121,-16.090,-23.813,-21.782,-15.169,-18.993,-24.791,-0.118,0.730,-0.557,1.465,1.465,-0.122,80.000,4415.000,1.000
-42.332,-17.414,-18.303,-23.127,-21.855,-15.224,-19.618,-23.376,-0.116,0.728,-0.556,1.526,1.404,-0.092,80.000,4416.000,1.000
-44.701,-19.397,-20.972,-22.639,-21.470,-15.567,-19.304,-20.490,-0.115,0.729,-0.561,1.495,1.343,-0.061,80.000,4417.000,1.000
-46.227,-21.604,-23.285,-22.028,-20.245,-15.550,-18.000,-16.791,-0.116,0.729,-0.556,1.465,1.434,0.000,80.000,4418.000,1.000
-46.896,-23.227,-24.432,-20.828,-17.806,-14.286,-15.706,-12.931,-0.116,0.729,-0.560,1.495,1.404,0.122,80.000,4419.000,1.000
-46.747,-23.531,-23.837,-18.581,-13.979,-11.113,-12.492,-9.386,-0.118,0.728,-0.560,1.526,1.404,0.153,80.000,4420.000,1.000
-45.863,-22.269,-21.426,-15.270,-9.077,-6.040,-8.585,-6.542,-0.115,0.727,-0.561,1.526,1.373,0.031,80.000,4421.000,1.000
-44.671,-19.788,-17.853,-11.626,-4.009,0.037,-4.416,-4.745,-0.114,0.726,-0.560,1.526,1.434,0.122,80.000,4422.000,1.000
-43.817,-16.797,-14.266,-8.800,0.057,5.561,-0.584,-4.195,-0.115,0.727,-0.560,1.434,1.282,0.122,80.000,4423.000,1.000
-43.667,-14.048,-11.658,-7.688,2.246,8.926,2.224,-4.879,-0.115,0.728,-0.562,1.434,1.343,0.092,80.000,4424.000,1.000
-44.093,-12.061,-10.402,-8.565,2.307,9.186,3.462,-6.621,-0.115,0.729,-0.562,1.526,1.251,0.183,80.000,4425.000,1.000
-44.715,-10.920,-10.224,-11.041,0.624,6.529,3.071,-9.090,-0.114,0.729,-0.562,1.465,1.282,0.122,80.000,4426.000,1.000
-45.208,-10.319,-10.487,-14.233,-2.035,2.157,1.525,-11.807,-0.115,0.728,-0.561,1.526,1.282,0.153,80.000,4427.000,1.000
-45.400,-9.925,-10.606,-17.167,-4.927,-2.481,-0.564,-14.358,-0.115,0.728,-0.559,1.495,1.251,0.183,80.000,4428.000,1.000
-45.223,-9.606,-10.328,-19.283,-7.630,-6.453,-2.823,-16.601,-0.116,0.729,-0.559,1.465,1.251,0.183,80.000,4429.000,1.000
-44.660,-9.233,-9.663,-20.613,-9.920,-9.391,-5.023,-18.520,-0.114,0.727,-0.559,1.434,1.312,0.183,80.000,4430.000,1.000
-43.720,-8.468,-8.626,-21.461,-11.453,-11.074,-6.736,-19.935,-0.114,0.728,-0.558,1.495,1.221,0.092,80.000,4431.000,1.000
-42.391,-6.984,-7.160,-22.042,-11.773,-11.334,-7.373,-20.554,-0.113,0.729,-0.559,1.465,1.190,0.061,80.000,4432.000,1.000
-40.683,-4.884,-5.355,-22.404,-10.678,-10.277,-6.606,-20.248,-0.113,0.728,-0.560,1.556,1.221,0.092,80.000,4433.000,1.000
-38.799,-2.844,-3.637,-22.478,-8.464,-8.354,-4.666,-19.131,-0.114,0.727,-0.559,1.526,1.221,0.061,80.000,4434.000,1.000
-37.175,-1.684,-2.573,-22.107,-5.708,-6.067,-2.118,-17.397,-0.113,0.727,-0.560,1.434,1.221,-0.061,80.000,4435.000,1.000
-36.156,-1.732,-2.395,-20.999,-2.865,-3.630,0.593,-15.159,-0.112,0.728,-0.558,1.495,1.221,-0.061,80.000,4436.000,1.000
-35.763,-2.737,-2.859,-18.886,-0.236,-1.062,3.245,-12.559,-0.111,0.728,-0.556,1.526,1.160,-0.061,80.000,4437.000,1.000
-35.913,-4.357,-3.644,-15.916,1.801,1.404,5.614,-9.973,-0.114,0.728,-0.558,1.404,1.190,-0.061,80.000,4438.000,1.000
-36.595,-6.384,-4.686,-12.744,2.877,3.239,7.394,-7.873,-0.115,0.726,-0.559,1.495,1.221,-0.061,80.000,4439.000,1.000
-37.747,-8.630,-6.116,-10.167,2.844,3.905,8.277,-6.575,-0.113,0.729,-0.559,1.373,1.129,-0.031,80.000,4440.000,1.000
-39.235,-10.968,-8.119,-8.838,1.743,3.043,8.003,-6.292,-0.113,0.728,-0.557,1.343,1.190,-0.122,80.000,4441.000,1.000
-41.009,-13.388,-10.787,-9.068,-0.196,0.704,6.605,-7.068,-0.113,0.727,-0.556,1.465,1.190,-0.183,80.000,4442.000,1.000
-43.012,-15.737,-13.845,-10.559,-2.327,-2.373,4.721,-8.476,-0.115,0.728,-0.558,1.373,1.190,-0.122,80.000,4443.000,1.000
-44.817,-17.527,-16.542,-12.421,-3.683,-4.942,3.356,-9.695,-0.114,0.728,-0.559,1.373,1.221,-0.153,80.000,4444.000,1.000
-45.637,-18.143,-18.002,-13.640,-3.552,-5.990,3.174,-10.106,-0.114,0.729,-0.558,1.312,1.221,-0.153,80.000,4445.000,1.000
-44.859,-17.221,-17.775,-13.647,-1.971,-5.325,4.085,-9.694,-0.114,0.728,-0.560,1.343,1.160,-0.153,80.000,4446.000,1.000
-42.465,-14.835,-16.010,-12.565,0.366,-3.467,5.532,-8.791,-0.114,0.727,-0.560,1.251,1.068,-0.153,80.000,4447.000,1.000
-38.884,-11.410,-13.246,-11.017,2.661,-1.074,7.082,-7.588,-0.115,0.728,-0.561,1.282,1.221,-0.214,80.000,4448.000,1.000
-34.639,-7.517,-10.165,-9.786,4.476,1.441,8.687,-6.100,-0.113,0.729,-0.564,1.221,1.221,-0.122,80.000,4449.000,1.000
-30.197,-3.712,-7.389,-9.486,5.757,3.855,10.493,-4.416,-0.115,0.729,-0.561,1.221,1.221,-0.031,80.000,4450.000,1.000
-26.064,-0.554,-5.305,-10.325,6.488,5.910,12.429,-2.820,-0.113,0.730,-0.563,1.190,1.190,-0.061,80.000,4451.000,1.000
-22.763,1.389,-4.022,-12.057,6.415,7.177,13.919,-1.796,-0.113,0.729,-0.560,1.221,1.099,-0.153,80.000,4452.000,1.000
-20.573,1.779,-3.417,-14.110,5.226,7.221,14.075,-1.929,-0.114,0.728,-0.562,1.160,1.190,-0.031,80.000,4453.000,1.000
-19.393,0.778,-3.271,-15.860,2.973,5.937,12.332,-3.542,-0.113,0.729,-0.562,1.282,1.190,-0.092,80.000,4454.000,1.000
-18.849,-0.948,-3.310,-16.839,0.248,3.734,8.963,-6.255,-0.113,0.728,-0.559,1.221,1.221,-0.092,80.000,4455.000,1.000
-18.416,-2.485,-3.092,-16.716,-1.969,1.414,5.094,-8.876,-0.113,0.727,-0.559,1.221,1.251,0.000,80.000,4456.000,1.000
-17.568,-3.084,-2.129,-15.337,-2.717,-0.120,2.185,-9.957,-0.111,0.727,-0.560,1.160,1.221,-0.031,80.000,4457.000,1.000
-16.074,-2.520,-0.293,-12.892,-1.601,-0.269,1.240,-8.723,-0.114,0.727,-0.562,1.129,1.282,-0.061,80.000,4458.000,1.000
-14.219,-1.174,1.933,-9.923,0.858,0.871,2.198,-5.618,-0.114,0.728,-0.563,1.221,1.251,-0.031,80.000,4459.000,1.000
-12.770,0.164,3.612,-7.193,3.345,2.375,3.970,-2.045,-0.114,0.726,-0.559,1.221,1.343,-0.061,80.000,4460.000,1.000
-12.530,0.716,3.874,-5.450,4.438,2.987,5.161,0.496,-0.116,0.726,-0.559,1.251,1.282,-0.153,80.000,4461.000,1.000
-13.698,0.204,2.533,-4.991,3.532,2.038,4.959,1.277,-0.115,0.725,-0.562,1.282,1.251,-0.153,80.000,4462.000,1.000
-15.640,-0.996,0.275,-5.394,1.211,-0.056,3.525,0.602,-0.114,0.726,-0.561,1.282,1.160,-0.183,80.000,4463.000,1.000
-17.332,-2.211,-1.795,-5.775,-1.275,-2.191,1.683,-0.560,-0.114,0.728,-0.559,1.373,1.221,-0.122,80.000,4464.000,1.000
-17.932,-2.972,-2.870,-5.380,-2.909,-3.340,0.258,-1.209,-0.113,0.725,-0.558,1.343,1.129,-0.214,80.000,4465.000,1.000
-17.093,-3.183,-2.796,-4.048,-3.427,-3.054,-0.418,-0.856,-0.114,0.723,-0.555,1.373,1.190,-0.183,80.000,4466.000,1.000
-15.071,-2.952,-1.925,-2.290,-3.248,-1.498,-0.518,0.295,-0.115,0.719,-0.561,1.373,1.282,-0.183,80.000,4467.000,1.000
-12.636,-2.389,-0.830,-0.994,-3.044,0.740,-0.394,1.556,-0.114,0.719,-0.562,1.617,1.251,-0.275,80.000,4468.000,1.000
-10.641,-1.491,-0.015,-0.840,-3.194,2.949,-0.280,2.192,-0.112,0.717,-0.561,1.770,1.221,-0.214,80.000,4469.000,1.000
-9.454,-0.102,0.413,-1.710,-3.449,4.715,-0.147,1.869,-0.113,0.719,-0.561,1.831,1.312,-0.275,80.000,4470.000,1.000
-8.886,1.939,0.790,-2.770,-3.181,6.119,0.243,0.845,-0.114,0.721,-0.561,1.953,1.221,-0.275,80.000,4471.000,1.000
-8.527,4.578,1.540,-3.234,-1.981,7.417,1.110,-0.239,-0.113,0.721,-0.557,2.075,1.343,-0.275,80.000,4472.000,1.000
-7.968,7.514,2.887,-2.898,0.069,8.686,2.438,-0.773,-0.112,0.723,-0.560,2.045,1.312,-0.275,80.000,4473.000,1.000
-6.880,10.310,4.792,-1.962,2.571,9.803,3.951,-0.493,-0.114,0.723,-0.558,2.197,1.282,-0.214,80.000,4474.000,1.000
-5.192,12.469,6.923,-0.676,4.978,10.609,5.271,0.418,-0.113,0.722,-0.561,2.289,1.312,-0.336,80.000,4475.000,1.000
-3.237,13.526,8.720,0.746,6.714,11.003,6.111,1.495,-0.115,0.722,-0.563,2.380,1.343,-0.427,80.000,4476.000,1.000
-1.674,13.229,9.561,1.957,7.353,10.934,6.275,2.229,-0.114,0.722,-0.566,2.380,1.251,-0.458,80.000,4477.000,1.000
-1.159,11.713,8.996,2.320,6.774,10.410,5.571,2.187,-0.113,0.725,-0.566,2.411,1.221,-0.366,80.000,4478.000,1.000
-1.850,9.551,7.033,1.289,5.200,9.603,3.903,1.090,-0.115,0.726,-0.566,2.380,1.160,-0.336,80.000,4479.000,1.000
-3.298,7.537,4.211,-0.922,3.085,8.883,1.518,-1.008,-0.115,0.730,-0.566,2.441,1.221,-0.366,80.000,4480.000,1.000
-4.857,6.281,1.330,-3.323,0.876,8.617,-0.998,-3.613,-0.115,0.731,-0.566,2.411,1.190,-0.336,80.000,4481.000,1.000
-6.043,5.954,-0.887,-4.775,-1.046,8.919,-2.986,-5.913,-0.116,0.732,-0.565,2.350,1.190,-0.305,80.000,4482.000,1.000
-6.678,6.295,-2.036,-4.630,-2.289,9.595,-3.907,-7.106,-0.116,0.734,-0.564,2.258,1.099,-0.275,80.000,4483.000,1.000
-6.965,6.830,-2.192,-3.034,-2.538,10.302,-3.481,-6.778,-0.118,0.732,-0.564,2.106,1.038,-0.244,80.000,4484.000,1.000
-7.312,7.259,-1.784,-0.795,-1.746,10.795,-1.831,-5.094,-0.119,0.731,-0.563,2.045,1.038,-0.244,80.000,4485.000,1.000
-7.826,7.685,-1.190,1.187,-0.146,11.031,0.451,-2.687,-0.116,0.732,-0.564,1.923,0.946,-0.183,80.000,4486.000,1.000
-8.085,8.480,-0.470,2.525,1.815,11.049,2.510,-0.299,-0.115,0.730,-0.564,1.862,0.885,-0.183,80.000,4487.000,1.000
-7.610,9.885,0.451,3.347,3.527,10.770,3.641,1.522,-0.115,0.730,-0.564,1.678,0.885,-0.244,80.000,4488.000,1.000
-6.450,11.696,1.403,3.769,4.315,9.940,3.528,2.483,-0.115,0.728,-0.567,1.709,0.885,-0.214,80.000,4489.000,1.000
-5.118,13.244,1.935,3.657,3.706,8.257,2.194,2.473,-0.115,0.728,-0.563,1.556,0.854,-0.183,80.000,4490.000,1.000
-4.008,13.827,1.713,2.980,1.770,5.615,-0.016,1.644,-0.113,0.728,-0.563,1.556,0.885,-0.061,80.000,4491.000,1.000
-3.163,13.264,0.854,2.041,-0.749,2.365,-2.362,0.507,-0.114,0.725,-0.563,1.465,0.977,-0.031,80.000,4492.000,1.000
-2.588,11.977,-0.227,1.127,-2.814,-0.716,-3.937,-0.289,-0.113,0.724,-0.562,1.343,0.916,-0.122,80.000,4493.000,1.000
-2.296,10.618,-1.100,0.232,-3.765,-2.805,-4.232,-0.459,-0.116,0.725,-0.562,1.404,0.854,-0.122,80.000,4494.000,1.000
-1.928,9.803,-1.363,-0.663,-3.635,-3.413,-3.417,-0.285,-0.115,0.726,-0.562,1.373,0.916,-0.122,80.000,4495.000,1.000
-0.832,9.981,-0.649,-1.302,-2.884,-2.585,-2.089,-0.285,-0.112,0.726,-0.561,1.312,0.946,0.061,80.000,4496.000,1.000
1.289,11.265,1.178,-1.348,-1.954,-0.837,-0.883,-0.810,-0.113,0.724,-0.562,1.312,0.977,0.031,80.000,4497.000,1.000
4.079,13.364,3.815,-0.718,-1.039,1.135,-0.285,-1.965,-0.112,0.724,-0.560,1.282,0.946,0.061,80.000,4498.000,1.000
6.865,15.723,6.542,0.286,-0.196,2.795,-0.535,-3.695,-0.113,0.725,-0.559,1.312,0.946,-0.061,80.000,4499.000,1.000
9.087,17.761,8.511,1.214,0.507,3.968,-1.518,-5.742,-0.115,0.726,-0.561,1.251,1.007,-0.031,80.000,4500.000,1.000
10.386,19.054,9.090,1.832,1.017,4.828,-2.803,-7.577,-0.113,0.724,-0.561,1.099,0.977,0.031,80.000,4501.000,1.000
10.503,19.373,8.147,2.178,1.365,5.594,-3.931,-8.613,-0.113,0.724,-0.563,1.160,0.916,0.031,80.000,4502.000,1.000
9.362,18.670,6.144,2.358,1.575,6.108,-4.718,-8.573,-0.111,0.725,-0.563,1.068,0.946,-0.061,80.000,4503.000,1.000
7.178,17.006,3.830,2.431,1.535,5.818,-5.263,-7.672,-0.112,0.726,-0.562,1.099,0.977,-0.122,80.000,4504.000,1.000
4.322,14.475,1.736,2.400,1.062,4.316,-5.683,-6.468,-0.113,0.727,-0.564,0.885,0.977,-0.244,80.000,4505.000,1.000
1.234,11.274,0.052,2.278,0.142,1.870,-5.891,-5.515,-0.114,0.728,-0.564,0.916,1.038,-0.183,80.000,4506.000,1.000
-1.486,7.870,-1.167,2.143,-0.956,-0.656,-5.658,-5.055,-0.113,0.729,-0.562,0.763,1.007,-0.244,80.000,4507.000,1.000
-3.320,4.825,-2.078,1.850,-1.941,-2.468,-4.932,-5.053,-0.115,0.728,-0.561,0.549,0.977,-0.275,80.000,4508.000,1.000
-4.329,2.347,-3.285,0.804,-2.923,-3.405,-4.091,-5.479,-0.113,0.729,-0.561,0.610,0.946,-0.336,80.000,4509.000,1.000
-5.216,0.131,-5.577,-1.623,-4.460,-3.890,-3.798,-6.457,-0.112,0.729,-0.562,0.366,0.885,-0.336,80.000,4510.000,1.000
-6.729,-2.320,-9.240,-5.394,-7.104,-4.502,-4.517,-8.089,-0.113,0.730,-0.560,0.366,0.916,-0.427,80.000,4511.000,1.000
-9.076,-5.303,-13.734,-9.671,-10.884,-5.659,-6.198,-10.176,-0.113,0.729,-0.562,0.305,0.916,-0.397,80.000,4512.000,1.000
-11.939,-8.772,-18.095,-13.411,-15.251,-7.507,-8.416,-12.242,-0.113,0.727,-0.568,0.275,1.038,-0.397,80.000,4513.000,1.000
-14.893,-12.400,-21.610,-16.065,-19.420,-9.848,-10.701,-13.875,-0.113,0.726,-0.563,0.244,1.068,-0.397,80.000,4514.000,1.000
-17.457,-15.608,-23.958,-17.612,-22.622,-12.098,-12.663,-14.952,-0.113,0.726,-0.563,0.183,1.068,-0.427,80.000,4515.000,1.000
-18.897,-17.627,-24.869,-18.062,-24.179,-13.490,-13.922,-15.510,-0.112,0.726,-0.561,0.244,1.221,-0.397,80.000,4516.000,1.000
-18.554,-17.840,-24.064,-17.301,-23.769,-13.588,-14.222,-15.582,-0.111,0.728,-0.562,0.214,1.160,-0.549,80.000,4517.000,1.000
-16.385,-16.148,-21.570,-15.352,-21.753,-12.607,-13.700,-15.262,-0.114,0.727,-0.560,0.275,1.221,-0.488,80.000,4518.000,1.000
-12.851,-12.917,-17.732,-12.417,-18.968,-11.072,-12.774,-14.690,-0.115,0.725,-0.561,0.244,1.221,-0.549,80.000,4519.000,1.000
-8.459,-8.703,-13.026,-8.786,-16.122,-9.262,-11.708,-13.875,-0.115,0.726,-0.565,0.336,1.312,-0.580,80.000,4520.000,1.000
-3.829,-4.293,-8.228,-5.067,-13.596,-7.286,-10.548,-12.738,-0.114,0.724,-0.564,0.305,1.282,-0.488,80.000,4521.000,1.000
0.052,-0.753,-4.545,-2.246,-11.705,-5.515,-9.468,-11.368,-0.114,0.724,-0.560,0.366,1.251,-0.458,80.000,4522.000,1.000
2.254,1.004,-3.009,-1.045,-10.732,-4.507,-8.800,-10.015,-0.115,0.724,-0.561,0.458,1.190,-0.366,80.000,4523.000,1.000
2.655,0.783,-3.708,-1.246,-10.674,-4.551,-8.709,-8.865,-0.115,0.724,-0.562,0.458,1.282,-0.366,80.000,4524.000,1.000
1.833,-0.910,-5.866,-2.012,-11.263,-5.502,-9.099,-8.031,-0.115,0.724,-0.560,0.458,1.160,-0.244,80.000,4525.000,1.000
0.160,-3.361,-8.595,-2.900,-12.304,-6.979,-9.868,-7.792,-0.116,0.724,-0.563,0.519,1.129,-0.305,80.000,4526.000,1.000
-2.534,-6.031,-11.353,-4.149,-13.859,-8.687,-11.079,-8.557,-0.115,0.724,-0.562,0.580,1.129,-0.275,80.000,4527.000,1.000
-6.344,-8.639,-13.851,-5.938,-16.007,-10.617,-12.787,-10.331,-0.115,0.726,-0.560,0.610,1.099,-0.214,80.000,4528.000,1.000
-10.749,-11.103,-15.854,-7.770,-18.449,-12.875,-14.717,-12.238,-0.114,0.727,-0.562,0.702,1.068,-0.275,80.000,4529.000,1.000
-14.800,-13.429,-17.099,-8.706,-20.451,-15.335,-16.241,-12.888,-0.114,0.726,-0.559,0.732,1.038,-0.214,80.000,4530.000,1.000
-17.531,-15.576,-17.362,-8.060,-21.324,-17.624,-16.811,-11.474,-0.115,0.725,-0.560,0.824,1.129,-0.153,80.000,4531.000,1.000
-18.242,-17.395,-16.662,-5.955,-20.981,-19.387,-16.443,-8.533,-0.115,0.726,-0.566,0.916,1.068,-0.214,80.000,4532.000,1.000
-16.805,-18.688,-15.390,-3.361,-19.961,-20.421,-15.671,-5.597,-0.113,0.725,-0.562,0.946,1.099,-0.244,80.000,4533.000,1.000
-13.941,-19.345,-14.162,-1.515,-18.961,-20.653,-15.028,-4.052,-0.114,0.724,-0.562,1.007,1.068,-0.183,80.000,4534.000,1.000
-10.943,-19.392,-13.437,-1.130,-18.415,-20.190,-14.656,-4.226,-0.115,0.724,-0.560,1.007,1.038,-0.183,80.000,4535.000,1.000
-8.814,-18.882,-13.155,-1.983,-18.331,-19.279,-14.349,-5.337,-0.115,0.724,-0.560,1.160,1.099,-0.092,80.000,4536.000,1.000
-7.655,-17.781,-12.763,-3.084,-18.307,-18.101,-13.834,-6.157,-0.115,0.726,-0.560,1.160,1.038,-0.061,80.000,4537.000,1.000
-6.893,-15.986,-11.632,-3.262,-17.705,-16.591,-12.989,-5.797,-0.114,0.724,-0.558,1.129,1.099,0.031,80.000,4538.000,1.000
-5.955,-13.510,-9.512,-1.865,-16.005,-14.538,-11.848,-4.084,-0.113,0.722,-0.557,1.251,0.946,0.031,80.000,4539.000,1.000
-4.733,-10.683,-6.753,0.824,-13.235,-11.985,-10.513,-1.492,-0.111,0.721,-0.558,1.312,1.099,0.031,80.000,4540.000,1.000
-3.506,-8.022,-4.044,3.820,-9.975,-9.425,-9.089,1.249,-0.111,0.721,-0.558,1.404,1.099,0.031,80.000,4541.000,1.000
-2.653,-5.820,-1.879,6.132,-6.868,-7.424,-7.647,3.600,-0.115,0.721,-0.559,1.404,1.068,0.092,80.000,4542.000,1.000
-2.540,-4.088,-0.401,7.255,-4.230,-6.154,-6.227,5.365,-0.115,0.720,-0.561,1.495,1.068,0.061,80.000,4543.000,1.000
-3.430,-2.872,0.347,7.237,-2.127,-5.422,-4.918,6.534,-0.112,0.719,-0.563,1.617,1.038,0.000,80.000,4544.000,1.000
-5.221,-2.483,0.263,6.498,-0.725,-5.091,-3.962,7.068,-0.110,0.720,-0.562,1.770,1.129,0.031,80.000,4545.000,1.000
-7.350,-3.332,-0.714,5.602,-0.423,-5.357,-3.791,6.840,-0.112,0.720,-0.559,1.770,1.129,0.031,80.000,4546.000,1.000
-9.116,-5.532,-2.471,5.012,-1.589,-6.563,-4.803,5.750,-0.115,0.720,-0.559,1.923,1.160,-0.122,80.000,4547.000,1.000
-10.093,-8.674,-4.735,4.760,-4.225,-8.850,-7.037,3.879,-0.116,0.720,-0.561,2.014,1.129,-0.031,80.000,4548.000,1.000
-10.216,-12.007,-7.109,4.386,-7.893,-12.020,-10.082,1.447,-0.115,0.720,-0.563,2.075,1.160,-0.031,80.000,4549.000,1.000
-9.575,-14.839,-9.090,3.356,-11.914,-15.661,-13.316,-1.323,-0.116,0.721,-0.565,2.106,0.977,-0.092,80.000,4550.000,1.000
-8.353,-16.870,-10.263,1.478,-15.658,-19.332,-16.164,-4.224,-0.115,0.722,-0.560,2.106,1.007,-0.122,80.000,4551.000,1.000
-6.844,-18.171,-10.509,-0.941,-18.650,-22.568,-18.149,-6.928,-0.115,0.722,-0.561,2.289,0.977,-0.122,80.000,4552.000,1.000
-5.245,-18.797,-9.895,-3.133,-20.486,-24.810,-18.887,-8.942,-0.115,0.724,-0.563,2.167,0.977,-0.122,80.000,4553.000,1.000
-3.524,-18.531,-8.449,-4.213,-20.807,-25.565,-18.200,-9.823,-0.115,0.726,-0.563,2.167,0.916,-0.183,80.000,4554.000,1.000
-1.719,-17.189,-6.326,-3.824,-19.530,-24.772,-16.308,-9.472,-0.115,0.727,-0.563,2.136,0.793,-0.122,80.000,4555.000,1.000
-0.204,-15.032,-4.057,-2.418,-17.016,-22.901,-13.835,-8.206,-0.115,0.729,-0.566,1.923,0.824,-0.153,80.000,4556.000,1.000
0.636,-12.664,-2.276,-0.742,-13.868,-20.598,-11.447,-6.499,-0.113,0.729,-0.567,1.862,0.824,-0.153,80.000,4557.000,1.000
0.880,-10.622,-1.186,0.804,-10.550,-18.228,-9.406,-4.667,-0.113,0.728,-0.563,1.831,0.793,-0.153,80.000,4558.000,1.000
0.995,-9.146,-0.527,2.242,-7.307,-15.790,-7.535,-2.797,-0.114,0.728,-0.564,1.740,0.854,-0.153,80.000,4559.000,1.000
1.452,-8.197,0.067,3.740,-4.267,-13.104,-5.516,-0.830,-0.115,0.729,-0.567,1.617,0.793,-0.092,80.000,4560.000,1.000
2.554,-7.528,0.889,5.464,-1.451,-10.022,-3.166,1.323,-0.115,0.729,-0.566,1.526,0.824,-0.092,80.000,4561.000,1.000
4.488,-6.742,2.201,7.577,1.241,-6.515,-0.476,3.684,-0.114,0.730,-0.566,1.404,0.854,-0.061,80.000,4562.000,1.000
7.220,-5.449,4.162,10.182,3.891,-2.693,2.490,6.175,-0.113,0.730,-0.565,1.251,0.916,-0.061,80.000,4563.000,1.000
10.194,-3.574,6.513,12.952,6.316,1.120,5.472,8.488,-0.114,0.730,-0.564,1.221,0.885,0.031,80.000,4564.000,1.000
12.467,-1.416,8.557,14.908,8.028,4.407,7.824,9.961,-0.113,0.728,-0.566,1.099,1.007,0.031,80.000,4565.000,1.000
13.425,0.694,9.677,15.109,8.607,6.682,8.807,9.953,-0.114,0.729,-0.565,0.946,1.007,0.092,80.000,4566.000,1.000
13.132,2.568,9.670,13.449,7.989,7.636,8.161,8.485,-0.114,0.727,-0.566,0.946,0.885,0.061,80.000,4567.000,1.000
11.941,3.931,8.527,10.526,6.337,7.076,6.251,6.273,-0.114,0.727,-0.563,0.854,0.916,0.031,80.000,4568.000,1.000
10.223,4.345,6.340,7.098,3.940,4.988,3.741,4.182,-0.115,0.727,-0.562,0.793,0.977,0.092,80.000,4569.000,1.000
8.478,3.546,3.608,3.894,1.372,1.795,1.335,2.776,-0.115,0.725,-0.565,0.671,0.824,0.061,80.000,4570.000,1.000
7.209,1.700,1.225,1.516,-0.560,-1.613,-0.350,2.205,-0.115,0.726,-0.567,0.641,0.793,0.061,80.000,4571.000,1.000
6.574,-0.682,-0.074,0.239,-1.260,-4.169,-0.928,2.255,-0.113,0.726,-0.566,0.488,0.793,0.092,80.000,4572.000,1.000
6.451,-2.939,-0.045,-0.020,-0.657,-4.995,-0.349,2.529,-0.114,0.725,-0.567,0.488,0.885,0.031,80.000,4573.000,1.000
6.816,-4.479,1.175,0.535,0.884,-3.797,1.120,2.742,-0.115,0.727,-0.566,0.458,0.793,-0.122,80.000,4574.000,1.000
7.824,-5.023,3.185,1.707,2.796,-1.137,3.022,2.857,-0.114,0.727,-0.565,0.397,0.824,-0.122,80.000,4575.000,1.000
9.545,-4.620,5.367,3.264,4.486,1.869,4.861,2.986,-0.112,0.725,-0.565,0.305,0.854,-0.183,80.000,4576.000,1.000
11.773,-3.550,7.056,4.879,5.463,4.146,6.175,3.238,-0.111,0.726,-0.565,0.244,0.946,-0.275,80.000,4577.000,1.000
13.979,-2.321,7.740,6.138,5.426,4.981,6.572,3.595,-0.113,0.726,-0.567,0.244,0.946,-0.214,80.000,4578.000,1.000
15.414,-1.536,7.205,6.670,4.389,4.170,5.880,3.878,-0.111,0.727,-0.568,0.214,0.977,-0.336,80.000,4579.000,1.000
15.468,-1.470,5.721,6.381,2.856,2.284,4.370,3.908,-0.111,0.728,-0.563,0.153,1.007,-0.366,80.000,4580.000,1.000
14.158,-1.759,4.103,5.666,1.789,0.626,2.801,3.766,-0.110,0.728,-0.562,0.092,1.068,-0.336,80.000,4581.000,1.000
12.262,-1.670,3.369,5.235,2.118,0.437,2.017,3.827,-0.112,0.727,-0.560,0.031,1.038,-0.336,80.000,4582.000,1.000
10.836,-0.756,4.102,5.544,4.096,1.941,2.373,4.456,-0.111,0.726,-0.562,0.031,1.099,-0.397,80.000,4583.000,1.000
10.534,0.753,6.115,6.506,7.125,4.172,3.577,5.737,-0.112,0.728,-0.563,-0.092,1.129,-0.488,80.000,4584.000,1.000
11.314,2.128,8.671,7.758,10.131,5.637,5.006,7.461,-0.112,0.727,-0.565,-0.122,1.099,-0.427,80.000,4585.000,1.000
12.689,2.675,11.033,8.975,12.147,5.239,6.136,9.243,-0.115,0.727,-0.562,-0.122,1.129,-0.519,80.000,4586.000,1.000
14.229,2.278,12.978,9.987,12.842,3.007,6.878,10.721,-0.114,0.728,-0.559,-0.153,1.129,-0.488,80.000,4587.000,1.000
15.691,1.486,14.769,10.760,12.663,0.191,7.582,11.744,-0.116,0.727,-0.559,-0.214,1.129,-0.610,80.000,4588.000,1.000
16.775,1.051,16.605,11.304,12.405,-1.540,8.627,12.387,-0.115,0.725,-0.562,-0.153,1.068,-0.549,80.000,4589.000,1.000
17.195,1.486,18.392,11.705,12.671,-1.175,10.003,12.820,-0.115,0.726,-0.563,-0.214,1.160,-0.549,80.000,4590.000,1.000
17.105,3.019,20.136,12.142,13.665,1.174,11.289,13.117,-0.116,0.725,-0.561,-0.153,1.160,-0.427,80.000,4591.000,1.000
17.158,5.616,22.172,12.687,15.285,4.615,11.961,13.082,-0.115,0.726,-0.559,-0.153,1.282,-0.397,80.000,4592.000,1.000
17.981,8.906,24.779,13.183,17.257,8.096,11.735,12.350,-0.115,0.726,-0.562,-0.122,1.282,-0.427,80.000,4593.000,1.000
19.651,12.191,27.680,13.388,19.172,10.817,10.730,10.789,-0.116,0.725,-0.561,-0.214,1.221,-0.458,80.000,4594.000,1.000
21.665,14.616,30.041,13.166,20.522,12.393,9.410,8.774,-0.116,0.726,-0.561,-0.153,1.251,-0.336,80.000,4595.000,1.000
23.236,15.469,30.915,12.526,20.857,12.808,8.364,7.033,-0.116,0.725,-0.562,-0.183,1.221,-0.397,80.000,4596.000,1.000
23.592,14.482,29.731,11.545,20.000,12.276,8.077,6.261,-0.117,0.726,-0.561,-0.122,1.251,-0.366,80.000,4597.000,1.000
22.374,11.996,26.645,10.412,18.250,11.196,8.860,6.902,-0.116,0.725,-0.562,-0.122,1.251,-0.305,80.000,4598.000,1.000
20.014,8.907,22.638,9.573,16.457,10.157,10.930,9.148,-0.116,0.724,-0.559,-0.061,1.221,-0.214,80.000,4599.000,1.000
17.562,6.364,19.119,9.596,15.686,9.779,14.329,12.885,-0.116,0.724,-0.561,0.031,1.221,-0.153,80.000,4600.000,1.000
15.989,5.287,17.146,10.698,16.548,10.374,18.725,17.578,-0.117,0.725,-0.563,0.061,1.221,-0.244,80.000,4601.000,1.000
15.631,5.889,16.860,12.376,18.743,11.711,23.343,22.333,-0.116,0.725,-0.563,0.183,1.190,-0.336,80.000,4602.000,1.000
16.173,7.577,17.589,13.724,21.197,13.135,27.141,26.163,-0.115,0.724,-0.563,0.153,1.160,-0.366,80.000,4603.000,1.000
16.860,9.283,18.363,14.076,22.562,13.849,29.057,28.247,-0.114,0.725,-0.562,0.183,1.160,-0.305,80.000,4604.000,1.000
16.734,9.946,18.302,13.182,21.757,13.220,28.306,28.100,-0.114,0.725,-0.561,0.244,1.221,-0.214,80.000,4605.000,1.000
15.089,8.902,16.898,11.014,18.473,11.099,24.746,25.740,-0.117,0.725,-0.557,0.214,1.190,-0.183,80.000,4606.000,1.000
12.010,6.122,14.264,7.821,13.420,7.991,19.125,21.780,-0.117,0.724,-0.559,0.214,1.099,-0.275,80.000,4607.000,1.000
8.435,2.253,11.112,4.274,8.088,4.877,12.889,17.275,-0.117,0.727,-0.561,0.336,1.160,-0.122,80.000,4608.000,1.000
5.582,-1.641,8.397,1.313,4.094,2.756,7.546,13.272,-0.116,0.728,-0.562,0.366,1.190,0.000,80.000,4609.000,1.000
4.287,-4.596,6.915,-0.297,2.476,2.155,3.998,10.373,-0.115,0.727,-0.562,0.458,1.221,-0.153,80.000,4610.000,1.000
4.800,-6.128,7.097,-0.272,3.352,2.925,2.404,8.720,-0.115,0.728,-0.562,0.519,1.221,-0.092,80.000,4611.000,1.000
6.909,-6.280,8.873,1.202,6.015,4.346,2.472,8.272,-0.115,0.728,-0.562,0.427,1.190,-0.153,80.000,4612.000,1.000
10.017,-5.495,11.616,3.607,9.279,5.433,3.670,8.880,-0.115,0.728,-0.561,0.458,1.160,-0.214,80.000,4613.000,1.000
13.263,-4.411,14.384,6.228,11.910,5.395,5.290,10.134,-0.112,0.727,-0.559,0.519,1.343,-0.305,80.000,4614.000,1.000
15.864,-3.553,16.318,8.342,13.086,4.079,6.623,11.366,-0.114,0.727,-0.561,0.580,1.373,-0.092,80.000,4615.000,1.000
17.515,-3.000,16.919,9.447,12.712,2.091,7.273,11.950,-0.113,0.726,-0.562,0.580,1.312,-0.122,80.000,4616.000,1.000
18.528,-2.299,16.153,9.437,11.372,0.442,7.328,11.645,-0.113,0.728,-0.562,0.610,1.282,-0.183,80.000,4617.000,1.000
19.556,-0.852,14.367,8.532,9.871,-0.080,7.154,10.633,-0.114,0.727,-0.561,0.732,1.282,-0.183,80.000,4618.000,1.000
21.161,1.495,12.091,7.056,8.743,0.640,7.014,9.260,-0.113,0.728,-0.559,0.763,1.312,-0.153,80.000,4619.000,1.000
23.716,4.294,9.936,5.500,8.131,2.092,6.880,7.792,-0.114,0.730,-0.559,0.793,1.343,-0.153,80.000,4620.000,1.000
27.486,6.961,8.579,4.592,7.974,3.648,6.559,6.327,-0.114,0.729,-0.559,0.885,1.312,-0.122,80.000,4621.000,1.000
32.371,9.185,8.467,4.753,8.137,5.021,5.920,4.801,-0.114,0.728,-0.560,0.854,1.404,-0.183,80.000,4622.000,1.000
37.636,10.822,9.464,5.526,8.411,6.222,5.009,3.167,-0.113,0.728,-0.555,0.946,1.343,-0.153,80.000,4623.000,1.000
42.206,11.678,10.959,6.019,8.577,7.272,4.039,1.664,-0.114,0.730,-0.558,0.885,1.373,-0.305,80.000,4624.000,1.000
45.189,11.585,12.319,5.811,8.561,8.150,3.308,0.789,-0.115,0.730,-0.559,0.763,1.404,-0.275,80.000,4625.000,1.000
46.112,10.665,13.230,5.277,8.587,8.955,3.146,1.034,-0.115,0.729,-0.558,0.763,1.404,-0.275,80.000,4626.000,1.000
44.976,9.443,13.800,5.283,9.215,9.978,3.877,2.697,-0.113,0.729,-0.560,0.824,1.373,-0.305,80.000,4627.000,1.000
42.264,8.558,14.320,6.538,10.907,11.376,5.530,5.676,-0.115,0.728,-0.558,0.854,1.343,-0.305,80.000,4628.000,1.000
38.651,8.156,14.746,8.973,13.305,12.673,7.480,9.238,-0.115,0.728,-0.561,0.854,1.434,-0.305,80.000,4629.000,1.000
34.502,7.606,14.458,11.627,15.198,12.866,8.671,12.222,-0.115,0.728,-0.559,0.885,1.404,-0.214,80.000,4630.000,1.000
29.762,5.993,12.716,13.215,15.446,11.245,8.426,13.752,-0.115,0.729,-0.559,0.885,1.404,-0.214,80.000,4631.000,1.000
24.452,2.927,9.369,12.923,13.798,8.020,6.997,13.795,-0.114,0.728,-0.558,0.977,1.404,-0.397,80.000,4632.000,1.000
19.058,-1.160,4.981,10.758,10.908,4.150,5.377,13.031,-0.114,0.728,-0.561,0.885,1.434,-0.305,80.000,4633.000,1.000
14.332,-5.318,0.395,7.368,7.852,0.825,4.628,12.213,-0.116,0.727,-0.557,0.946,1.404,-0.214,80.000,4634.000,1.000
10.874,-8.473,-3.591,3.697,5.668,-0.894,5.255,11.716,-0.115,0.727,-0.557,1.007,1.434,-0.214,80.000,4635.000,1.000
9.017,-9.662,-6.222,0.704,5.093,-0.326,7.051,11.591,-0.113,0.728,-0.560,1.038,1.526,-0.153,80.000,4636.000,1.000
8.849,-8.307,-6.868,-0.958,6.386,2.542,9.363,11.732,-0.113,0.729,-0.561,1.099,1.373,-0.122,80.000,4637.000,1.000
10.112,-4.536,-5.372,-1.256,9.142,6.833,11.445,11.900,-0.113,0.728,-0.559,1.068,1.404,-0.153,80.000,4638.000,1.000
12.133,0.706,-2.274,-0.789,12.341,11.030,12.661,11.807,-0.114,0.726,-0.561,1.068,1.434,-0.153,80.000,4639.000,1.000
14.079,6.026,1.427,-0.293,14.855,13.772,12.728,11.360,-0.115,0.727,-0.559,1.007,1.556,-0.092,80.000,4640.000,1.000
15.341,10.241,4.750,-0.128,16.065,14.600,11.933,10.792,-0.114,0.725,-0.556,1.251,1.526,-0.153,80.000,4641.000,1.000
15.597,12.720,6.928,-0.393,15.933,13.926,10.891,10.372,-0.114,0.729,-0.554,1.251,1.648,-0.122,80.000,4642.000,1.000
14.616,13.258,7.351,-1.350,14.557,12.386,9.891,9.967,-0.114,0.729,-0.556,1.312,1.526,-0.183,80.000,4643.000,1.000
12.341,11.894,5.718,-3.305,11.901,10.374,8.640,9.024,-0.115,0.729,-0.558,1.221,1.465,-0.122,80.000,4644.000,1.000
9.291,9.041,2.437,-6.107,8.086,8.117,6.690,6.995,-0.115,0.728,-0.562,1.251,1.617,-0.122,80.000,4645.000,1.000
6.573,5.631,-1.289,-9.102,3.740,5.982,3.950,3.716,-0.115,0.728,-0.562,1.373,1.495,-0.122,80.000,4646.000,1.000
5.268,2.917,-3.981,-11.590,-0.155,4.508,0.707,-0.539,-0.114,0.727,-0.560,1.404,1.526,-0.092,80.000,4647.000,1.000
6.047,2.053,-4.446,-13.075,-2.710,4.122,-2.589,-5.163,-0.113,0.725,-0.558,1.373,1.465,-0.092,80.000,4648.000,1.000
9.326,3.664,-2.057,-13.068,-3.430,4.898,-5.403,-9.345,-0.113,0.726,-0.560,1.434,1.404,-0.031,80.000,4649.000,1.000
15.225,7.488,3.039,-11.035,-2.276,6.613,-7.210,-12.292,-0.113,0.726,-0.561,1.404,1.404,-0.092,80.000,4650.000,1.000
23.186,12.376,9.888,-6.710,0.337,8.942,-7.752,-13.479,-0.115,0.726,-0.557,1.373,1.343,-0.061,80.000,4651.000,1.000
31.946,16.873,17.144,-0.359,3.654,11.519,-7.193,-12.829,-0.113,0.726,-0.560,1.404,1.404,-0.092,80.000,4652.000,1.000
40.036,19.952,23.652,7.243,6.950,13.925,-5.874,-10.644,-0.112,0.728,-0.558,1.404,1.343,-0.061,80.000,4653.000,1.000
46.198,21.293,28.621,14.934,9.846,15.738,-4.010,-7.377,-0.112,0.728,-0.562,1.465,1.312,-0.092,80.000,4654.000,1.000
49.354,20.977,31.337,21.282,12.170,16.559,-1.806,-3.562,-0.112,0.727,-0.561,1.404,1.404,0.000,80.000,4655.000,1.000
48.679,19.122,31.121,24.884,13.717,16.085,0.347,0.174,-0.113,0.729,-0.560,1.373,1.343,-0.092,80.000,4656.000,1.000
44.160,15.977,27.947,24.992,14.445,14.411,2.154,3.395,-0.114,0.729,-0.557,1.404,1.282,-0.153,80.000,4657.000,1.000
36.921,12.155,22.851,21.928,14.765,12.206,3.823,6.130,-0.113,0.728,-0.557,1.373,1.343,-0.153,80.000,4658.000,1.000
28.590,8.503,17.371,16.758,15.253,10.351,5.944,8.684,-0.112,0.728,-0.561,1.343,1.373,-0.153,80.000,4659.000,1.000
20.454,5.718,12.659,10.635,16.138,9.339,8.889,11.245,-0.113,0.729,-0.564,1.282,1.343,-0.122,80.000,4660.000,1.000
13.333,4.131,9.202,4.547,17.195,9.056,12.457,13.761,-0.113,0.728,-0.560,1.343,1.190,-0.183,80.000,4661.000,1.000
7.879,3.815,7.086,-0.635,18.079,9.082,16.042,16.078,-0.112,0.728,-0.560,1.343,1.282,-0.275,80.000,4662.000,1.000
4.544,4.837,6.291,-4.269,18.712,9.146,19.072,18.080,-0.113,0.726,-0.561,1.190,1.343,-0.275,80.000,4663.000,1.000
3.264,7.284,6.781,-6.092,19.358,9.288,21.229,19.708,-0.112,0.727,-0.563,1.251,1.343,-0.336,80.000,4664.000,1.000
3.516,11.021,8.474,-6.089,20.313,9.681,22.378,20.833,-0.110,0.729,-0.559,1.190,1.251,-0.366,80.000,4665.000,1.000
4.761,15.478,11.198,-4.298,21.495,10.443,22.389,21.148,-0.111,0.730,-0.562,1.251,1.221,-0.366,80.000,4666.000,1.000
6.561,19.749,14.633,-0.838,22.381,11.577,21.167,20.324,-0.113,0.729,-0.562,1.221,1.190,-0.336,80.000,4667.000,1.000
8.410,22.991,18.337,3.918,22.398,12.907,18.815,18.326,-0.112,0.730,-0.560,1.129,1.160,-0.336,80.000,4668.000,1.000
9.786,24.739,21.767,9.159,21.274,13.961,15.602,15.405,-0.113,0.731,-0.561,1.068,1.160,-0.366,80.000,4669.000,1.000
10.302,24.879,24.197,13.650,19.061,14.067,11.816,11.839,-0.114,0.731,-0.561,1.038,1.312,-0.397,80.000,4670.000,1.000
9.647,23.529,24.822,16.235,16.055,12.842,7.818,7.955,-0.113,0.730,-0.561,1.068,1.221,-0.336,80.000,4671.000,1.000
7.566,21.096,23.169,16.369,12.723,10.578,4.083,4.294,-0.115,0.729,-0.562,1.099,1.190,-0.397,80.000,4672.000,1.000
4.111,18.326,19.452,14.191,9.541,8.031,0.962,1.454,-0.115,0.728,-0.563,1.007,1.190,-0.305,80.000,4673.000,1.000
-0.136,16.079,14.542,10.455,6.875,5.885,-1.417,-0.237,-0.114,0.728,-0.560,0.977,1.190,-0.336,80.000,4674.000,1.000
-4.436,14.787,9.476,6.279,4.906,4.306,-3.023,-0.891,-0.113,0.727,-0.560,0.946,1.221,-0.244,80.000,4675.000,1.000
-8.564,14.014,4.790,2.431,3.421,2.836,-3.928,-1.107,-0.113,0.726,-0.563,0.977,1.190,-0.214,80.000,4676.000,1.000
-12.933,12.635,0.278,-1.158,1.740,0.762,-4.453,-1.806,-0.114,0.726,-0.562,0.946,1.129,-0.153,80.000,4677.000,1.000
-18.056,9.578,-4.584,-5.022,-0.942,-2.222,-5.061,-3.808,-0.114,0.727,-0.564,0.977,1.160,-0.214,80.000,4678.000,1.000
-23.980,4.474,-10.075,-9.439,-4.989,-5.710,-5.982,-7.347,-0.114,0.729,-0.562,1.007,1.099,-0.244,80.000,4679.000,1.000
-30.260,-2.262,-16.108,-14.263,-10.079,-8.933,-7.028,-11.931,-0.113,0.729,-0.560,1.007,1.160,-0.244,80.000,4680.000,1.000
-36.171,-9.722,-22.304,-19.175,-15.438,-11.394,-7.859,-16.651,-0.115,0.727,-0.561,0.946,1.221,-0.183,80.000,4681.000,1.000
-40.673,-16.697,-27.828,-23.608,-20.159,-13.057,-8.314,-20.634,-0.113,0.726,-0.559,1.007,1.007,-0.275,80.000,4682.000,1.000
-42.540,-21.852,-31.319,-26.552,-23.395,-13.978,-8.423,-23.345,-0.111,0.723,-0.561,0.977,0.977,-0.336,80.000,4683.000,1.000
-41.013,-24.055,-31.405,-26.902,-24.518,-13.974,-8.200,-24.654,-0.113,0.723,-0.561,1.068,1.007,-0.244,80.000,4684.000,1.000
-36.386,-22.700,-27.516,-24.158,-23.294,-12.790,-7.614,-24.683,-0.113,0.722,-0.560,1.160,0.946,-0.244,80.000,4685.000,1.000
-29.873,-18.044,-20.392,-18.760,-20.003,-10.541,-6.726,-23.584,-0.114,0.721,-0.560,1.190,0.946,-0.366,80.000,4686.000,1.000
-22.944,-11.339,-11.866,-11.823,-15.384,-7.771,-5.666,-21.384,-0.113,0.720,-0.559,1.404,0.916,-0.275,80.000,4687.000,1.000
-16.802,-4.390,-4.024,-4.639,-10.363,-5.066,-4.514,-18.014,-0.111,0.721,-0.560,1.434,0.977,-0.427,80.000,4688.000,1.000
-12.236,1.257,1.699,1.717,-5.728,-2.731,-3.296,-13.492,-0.111,0.722,-0.560,1.556,1.007,-0.488,80.000,4689.000,1.000
-9.603,4.811,4.880,6.557,-1.930,-0.826,-2.113,-8.132,-0.112,0.723,-0.557,1.556,1.038,-0.427,80.000,4690.000,1.000
-8.877,6.172,5.813,9.582,0.906,0.624,-1.188,-2.571,-0.113,0.720,-0.558,1.617,1.038,-0.488,80.000,4691.000,1.000
-9.873,5.600,5.050,10.867,2.880,1.536,-0.694,2.527,-0.113,0.722,-0.558,1.709,1.007,-0.427,80.000,4692.000,1.000
-12.420,3.459,3.181,10.782,4.178,1.780,-0.542,6.824,-0.113,0.724,-0.557,1.831,1.038,-0.519,80.000,4693.000,1.000
-16.293,0.123,0.711,9.774,4.922,1.218,-0.456,10.328,-0.114,0.724,-0.562,1.953,1.068,-0.549,80.000,4694.000,1.000
-21.106,-3.967,-2.078,8.209,5.146,-0.204,-0.246,13.120,-0.115,0.727,-0.563,1.984,1.129,-0.519,80.000,4695.000,1.000
-26.365,-8.248,-5.137,6.273,4.858,-2.343,0.039,15.066,-0.114,0.726,-0.564,1.984,0.916,-0.458,80.000,4696.000,1.000
-31.620,-12.056,-8.448,3.894,4.092,-4.789,0.210,15.749,-0.112,0.728,-0.563,1.984,1.007,-0.488,80.000,4697.000,1.000
-36.451,-14.752,-11.758,0.949,3.000,-6.925,0.132,14.764,-0.112,0.731,-0.563,1.984,1.099,-0.427,80.000,4698.000,1.000
-40.324,-15.944,-14.506,-2.444,1.880,-8.211,-0.162,12.098,-0.113,0.732,-0.567,1.953,1.099,-0.397,80.000,4699.000,1.000
-42.608,-15.628,-16.076,-5.892,1.056,-8.464,-0.538,8.228,-0.114,0.732,-0.563,1.892,1.007,-0.458,80.000,4700.000,1.000
-42.876,-14.090,-16.128,-8.905,0.671,-7.864,-0.889,3.876,-0.115,0.731,-0.564,1.770,1.007,-0.580,80.000,4701.000,1.000
-41.198,-11.747,-14.790,-11.152,0.542,-6.763,-1.197,-0.308,-0.116,0.730,-0.565,1.709,0.854,-0.549,80.000,4702.000,1.000
-38.058,-9.091,-12.574,-12.568,0.250,-5.537,-1.499,-3.851,-0.117,0.732,-0.564,1.678,0.824,-0.610,80.000,4703.000,1.000
-34.146,-6.683,-10.179,-13.277,-0.566,-4.494,-1.749,-6.428,-0.117,0.731,-0.563,1.556,0.854,-0.549,80.000,4704.000,1.000
-30.260,-5.061,-8.372,-13.597,-2.000,-3.854,-1.761,-7.918,-0.117,0.731,-0.564,1.404,0.763,-0.641,80.000,4705.000,1.000
-27.145,-4.567,-7.738,-13.915,-3.853,-3.774,-1.251,-8.366,-0.115,0.732,-0.563,1.343,0.763,-0.641,80.000,4706.000,1.000
-25.190,-5.197,-8.330,-14.416,-5.706,-4.309,0.110,-7.849,-0.115,0.729,-0.564,1.190,0.702,-0.641,80.000,4707.000,1.000
-24.406,-6.686,-9.708,-15.115,-7.112,-5.349,2.526,-6.513,-0.114,0.729,-0.562,1.038,0.702,-0.488,80.000,4708.000,1.000
-24.800,-8.769,-11.482,-16.207,-7.876,-6.693,5.767,-4.755,-0.113,0.729,-0.565,1.007,0.702,-0.397,80.000,4709.000,1.000
-26.583,-11.309,-13.692,-18.141,-8.137,-8.106,9.135,-3.105,-0.113,0.728,-0.563,1.007,0.702,-0.488,80.000,4710.000,1.000
-29.875,-14.136,-16.637,-21.294,-8.119,-9.225,11.949,-1.908,-0.113,0.727,-0.561,0.916,0.732,-0.458,80.000,4711.000,1.000
-34.408,-16.920,-20.460,-25.656,-7.873,-9.593,14.005,-1.184,-0.113,0.725,-0.562,0.916,0.793,-0.458,80.000,4712.000,1.000
-39.645,-19.323,-24.947,-30.692,-7.229,-8.894,15.550,-0.723,-0.113,0.726,-0.562,0.885,0.732,-0.366,80.000,4713.000,1.000
-45.098,-21.238,-29.609,-35.445,-5.917,-7.078,17.039,-0.145,-0.113,0.727,-0.560,0.854,0.702,-0.458,80.000,4714.000,1.000
-50.308,-22.808,-33.841,-38.835,-3.768,-4.318,18.901,1.028,-0.115,0.725,-0.559,0.824,0.702,-0.366,80.000,4715.000,1.000
-54.582,-24.164,-36.967,-39.962,-0.866,-0.972,21.285,3.149,-0.115,0.724,-0.560,0.763,0.763,-0.305,80.000,4716.000,1.000
-57.065,-25.131,-38.301,-38.313,2.491,2.532,23.964,6.196,-0.114,0.726,-0.562,0.763,0.671,-0.244,80.000,4717.000,1.000
-57.184,-25.218,-37.379,-33.888,5.997,5.953,26.561,9.735,-0.115,0.723,-0.560,0.793,0.671,-0.305,80.000,4718.000,1.000
-54.848,-23.947,-34.162,-27.198,9.441,9.316,28.776,13.147,-0.116,0.725,-0.560,0.702,0.641,-0.397,80.000,4719.000,1.000
-50.321,-21.224,-29.069,-19.084,12.665,12.616,30.388,15.940,-0.115,0.725,-0.562,0.732,0.549,-0.305,80.000,4720.000,1.000
-44.224,-17.457,-22.950,-10.585,15.456,15.455,31.153,17.814,-0.115,0.726,-0.562,0.671,0.519,-0.305,80.000,4721.000,1.000
-37.631,-13.445,-17.089,-2.976,17.395,16.994,30.657,18.398,-0.115,0.726,-0.562,0.549,0.519,-0.275,80.000,4722.000,1.000
-31.749,-10.087,-12.859,2.508,17.910,16.359,28.357,17.216,-0.117,0.729,-0.562,0.488,0.519,-0.336,80.000,4723.000,1.000
-27.112,-7.940,-10.890,5.379,16.727,13.299,24.036,14.137,-0.117,0.729,-0.562,0.397,0.488,-0.305,80.000,4724.000,1.000
-23.154,-6.870,-10.640,6.207,14.222,8.512,18.220,9.692,-0.116,0.729,-0.561,0.336,0.488,-0.366,80.000,4725.000,1.000
-18.852,-6.131,-10.921,5.984,11.285,3.373,12.115,4.841,-0.116,0.730,-0.560,0.275,0.488,-0.336,80.000,4726.000,1.000
-13.718,-4.861,-10.704,5.394,8.902,-0.663,7.144,0.578,-0.115,0.731,-0.561,0.244,0.458,-0.336,80.000,4727.000,1.000
-8.112,-2.676,-9.537,4.644,7.698,-2.706,4.321,-2.356,-0.114,0.730,-0.562,0.153,0.458,-0.366,80.000,4728.000,1.000
-2.864,0.079,-7.609,3.593,7.588,-2.821,3.752,-3.793,-0.115,0.729,-0.561,0.031,0.519,-0.366,80.000,4729.000,1.000
1.193,2.648,-5.532,2.029,7.804,-1.855,4.594,-4.282,-0.113,0.730,-0.562,0.031,0.519,-0.427,80.000,4730.000,1.000
3.525,4.396,-3.890,0.046,7.370,-0.848,5.517,-4.796,-0.114,0.729,-0.562,0.031,0.488,-0.488,80.000,4731.000,1.000
4.108,5.057,-2.911,-1.851,5.639,-0.561,5.364,-6.193,-0.115,0.729,-0.561,-0.122,0.580,-0.458,80.000,4732.000,1.000
3.498,4.701,-2.408,-3.020,2.550,-1.334,3.626,-8.810,-0.113,0.728,-0.563,-0.153,0.671,-0.427,80.000,4733.000,1.000
2.573,3.738,-1.890,-3.080,-1.394,-3.097,0.478,-12.379,-0.113,0.728,-0.561,-0.153,0.671,-0.397,80.000,4734.000,1.000
2.065,2.895,-0.789,-2.115,-5.296,-5.428,-3.474,-16.249,-0.113,0.726,-0.557,-0.122,0.610,-0.397,80.000,4735.000,1.000
2.270,2.961,1.229,-0.548,-8.099,-7.661,-7.407,-19.660,-0.113,0.727,-0.559,-0.031,0.702,-0.488,80.000,4736.000,1.000
3.028,4.264,4.051,1.198,-8.920,-9.161,-10.475,-21.905,-0.115,0.727,-0.562,-0.061,0.671,-0.397,80.000,4737.000,1.000
3.815,6.302,7.093,2.790,-7.445,-9.676,-12.083,-22.467,-0.116,0.726,-0.563,-0.092,0.671,-0.397,80.000,4738.000,1.000
3.987,7.989,9.473,3.781,-4.125,-9.443,-12.043,-21.187,-0.115,0.726,-0.559,-0.031,0.732,-0.397,80.000,4739.000,1.000
3.263,8.383,10.414,3.725,0.063,-8.932,-10.531,-18.341,-0.113,0.726,-0.561,0.031,0.702,-0.488,80.000,4740.000,1.000
2.009,7.210,9.624,2.695,4.140,-8.543,-7.944,-14.491,-0.116,0.726,-0.559,0.061,0.671,-0.427,80.000,4741.000,1.000
0.922,4.877,7.357,1.377,7.463,-8.477,-4.799,-10.247,-0.115,0.726,-0.561,0.153,0.763,-0.580,80.000,4742.000,1.000
0.536,2.198,4.289,0.610,9.804,-8.666,-1.615,-6.054,-0.116,0.725,-0.559,0.061,0.793,-0.519,80.000,4743.000,1.000
1.132,0.122,1.377,1.005,11.333,-8.679,1.241,-2.063,-0.117,0.726,-0.561,0.153,0.732,-0.519,80.000,4744.000,1.000
2.880,-0.571,-0.476,2.756,12.463,-7.858,3.580,1.792,-0.117,0.725,-0.560,0.183,0.732,-0.580,80.000,4745.000,1.000
5.726,0.375,-0.881,5.605,13.469,-5.744,5.253,5.494,-0.117,0.726,-0.559,0.183,0.824,-0.580,80.000,4746.000,1.000
9.211,2.633,-0.080,9.054,14.286,-2.387,6.130,8.803,-0.117,0.727,-0.560,0.275,0.854,-0.610,80.000,4747.000,1.000
12.657,5.611,1.384,12.645,14.628,1.686,6.191,11.362,-0.116,0.727,-0.558,0.275,0.732,-0.488,80.000,4748.000,1.000
15.598,8.798,3.068,16.058,14.246,5.738,5.587,12.886,-0.115,0.727,-0.560,0.336,0.824,-0.458,80.000,4749.000,1.000
17.924,11.861,4.753,19.022,13.088,9.125,4.589,13.286,-0.116,0.727,-0.559,0.336,0.854,-0.458,80.000,4750.000,1.000
19.515,14.483,6.214,21.042,11.250,11.383,3.339,12.569,-0.116,0.727,-0.562,0.488,0.824,-0.427,80.000,4751.000,1.000
20.018,16.293,7.016,21.341,8.801,12.131,1.655,10.688,-0.115,0.728,-0.563,0.519,0.763,-0.519,80.000,4752.000,1.000
19.243,17.134,6.780,19.494,5.910,11.166,-0.707,7.711,-0.116,0.728,-0.561,0.519,0.916,-0.427,80.000,4753.000,1.000
17.564,17.356,5.612,16.043,3.158,8.739,-3.511,4.181,-0.116,0.728,-0.560,0.610,0.916,-0.336,80.000,4754.000,1.000
15.602,17.639,4.045,12.116,1.398,5.565,-5.955,1.035,-0.116,0.729,-0.558,0.610,0.854,-0.366,80.000,4755.000,1.000
13.677,18.422,2.581,8.598,1.147,2.501,-7.191,-0.988,-0.116,0.729,-0.559,0.549,0.824,-0.366,80.000,4756.000,1.000
11.760,19.509,1.347,5.816,2.151,0.130,-6.949,-1.795,-0.115,0.726,-0.559,0.549,0.824,-0.336,80.000,4757.000,1.000
9.742,20.112,0.033,3.605,3.439,-1.561,-5.799,-1.923,-0.115,0.725,-0.558,0.641,0.854,-0.275,80.000,4758.000,1.000
7.437,19.260,-1.958,1.341,3.719,-3.202,-4.945,-2.237,-0.116,0.726,-0.559,0.671,0.824,-0.275,80.000,4759.000,1.000
4.567,16.396,-5.083,-1.799,2.020,-5.536,-5.541,-3.429,-0.115,0.726,-0.561,0.763,0.916,-0.214,80.000,4760.000,1.000
1.096,11.832,-9.157,-6.132,-1.637,-8.688,-7.811,-5.455,-0.116,0.726,-0.558,0.793,1.007,-0.122,80.000,4761.000,1.000
-2.536,6.595,-13.368,-11.038,-6.210,-12.035,-10.862,-7.495,-0.115,0.723,-0.560,0.793,1.038,-0.122,80.000,4762.000,1.000
-5.751,1.728,-16.844,-15.337,-10.443,-14.798,-13.499,-8.636,-0.115,0.722,-0.562,0.916,1.129,-0.092,80.000,4763.000,1.000
-8.264,-2.241,-19.111,-18.034,-13.702,-16.600,-15.168,-8.623,-0.116,0.722,-0.559,0.946,1.160,-0.031,80.000,4764.000,1.000
-10.104,-5.346,-20.172,-18.804,-16.082,-17.564,-16.140,-8.008,-0.116,0.723,-0.559,1.007,1.129,-0.061,80.000,4765.000,1.000
-11.324,-7.885,-20.339,-17.922,-17.918,-18.027,-16.923,-7.598,-0.116,0.723,-0.561,1.129,1.129,-0.122,80.000,4766.000,1.000
-11.826,-10.008,-19.939,-15.856,-19.248,-18.126,-17.572,-7.629,-0.117,0.723,-0.559,1.129,1.221,-0.153,80.000,4767.000,1.000
-11.549,-11.640,-19.198,-13.056,-19.782,-17.703,-17.609,-7.525,-0.117,0.723,-0.556,1.312,1.129,-0.153,80.000,4768.000,1.000
-10.671,-12.795,-18.338,-9.971,-19.282,-16.678,-16.502,-6.385,-0.117,0.725,-0.557,1.404,1.038,-0.244,80.000,4769.000,1.000
-9.543,-13.778,-17.610,-6.941,-17.838,-15.378,-14.152,-3.671,-0.119,0.723,-0.560,1.465,1.007,-0.275,80.000,4770.000,1.000
-8.521,-15.018,-17.214,-4.071,-15.907,-14.455,-11.070,0.345,-0.118,0.723,-0.561,1.495,1.007,-0.305,80.000,4771.000,1.000
-7.783,-16.622,-17.198,-1.284,-14.116,-14.445,-8.215,4.593,-0.119,0.725,-0.563,1.465,1.068,-0.305,80.000,4772.000,1.000
-7.258,-18.121,-17.446,1.428,-13.011,-15.399,-6.568,7.684,-0.116,0.727,-0.559,1.495,1.068,-0.244,80.000,4773.000,1.000
-6.769,-18.837,-17.851,3.621,-12.963,-16.942,-6.743,8.497,-0.115,0.729,-0.559,1.526,0.946,-0.275,80.000,4774.000,1.000
-6.290,-18.530,-18.462,4.420,-14.150,-18.558,-8.752,6.589,-0.116,0.730,-0.559,1.404,0.946,-0.275,80.000,4775.000,1.000
-6.019,-17.527,-19.355,3.273,-16.393,-19.716,-11.939,2.408,-0.116,0.730,-0.561,1.343,0.977,-0.244,80.000,4776.000,1.000
-6.191,-16.330,-20.421,0.572,-19.123,-19.978,-15.307,-2.903,-0.114,0.729,-0.563,1.373,0.946,-0.183,80.000,4777.000,1.000
-6.807,-15.325,-21.390,-2.600,-21.741,-19.229,-18.135,-8.126,-0.114,0.732,-0.562,1.251,1.007,-0.183,80.000,4778.000,1.000
-7.604,-14.779,-22.064,-5.240,-24.010,-17.754,-20.284,-12.528,-0.115,0.732,-0.561,1.221,1.007,-0.214,80.000,4779.000,1.000
-8.360,-14.877,-22.512,-6.999,-26.034,-16.032,-22.024,-15.968,-0.116,0.731,-0.561,1.068,1.129,-0.153,80.000,4780.000,1.000
-9.087,-15.652,-23.036,-8.130,-27.948,-14.502,-23.627,-18.595,-0.115,0.730,-0.562,1.068,1.099,-0.214,80.000,4781.000,1.000
-9.789,-16.915,-23.870,-8.961,-29.630,-13.398,-25.031,-20.443,-0.116,0.729,-0.561,0.946,1.221,-0.092,80.000,4782.000,1.000
-10.194,-18.246,-24.855,-9.469,-30.586,-12.581,-25.746,-21.262,-0.115,0.732,-0.559,0.824,1.221,-0.122,80.000,4783.000,1.000
-9.942,-19.079,-25.462,-9.378,-30.174,-11.512,-25.078,-20.689,-0.117,0.731,-0.559,0.824,1.190,-0.153,80.000,4784.000,1.000
-8.940,-18.966,-25.087,-8.442,-28.026,-9.574,-22.553,-18.558,-0.116,0.730,-0.562,0.732,1.160,-0.153,80.000,4785.000,1.000
-7.240,-17.735,-23.210,-6.416,-24.279,-6.503,-18.271,-15.090,-0.118,0.729,-0.559,0.732,1.129,-0.061,80.000,4786.000,1.000
-4.584,-15.324,-19.378,-2.916,-19.373,-2.465,-12.899,-10.866,-0.116,0.730,-0.561,0.549,1.099,-0.092,80.000,4787.000,1.000
-0.431,-11.592,-13.331,2.424,-13.687,2.170,-7.291,-6.563,-0.116,0.731,-0.563,0.610,1.129,0.000,80.000,4788.000,1.000
5.446,-6.497,-5.315,9.543,-7.418,6.919,-2.083,-2.577,-0.118,0.729,-0.561,0.519,1.190,-0.092,80.000,4789.000,1.000
12.613,-0.461,3.751,17.667,-0.853,11.116,2.384,1.038,-0.115,0.729,-0.559,0.519,1.190,-0.122,80.000,4790.000,1.000
20.222,5.569,12.528,25.528,5.342,13.926,5.827,4.300,-0.116,0.728,-0.563,0.549,1.190,-0.031,80.000,4791.000,1.000
27.355,10.402,19.661,31.928,10.203,14.613,7.888,7.125,-0.115,0.728,-0.562,0.458,1.129,0.000,80.000,4792.000,1.000
33.248,13.089,24.151,36.122,12.947,12.978,8.376,9.431,-0.117,0.728,-0.561,0.458,1.282,-0.031,80.000,4793.000,1.000
37.636,13.476,25.750,37.984,13.468,9.704,7.575,11.335,-0.115,0.727,-0.562,0.519,1.312,-0.092,80.000,4794.000,1.000
40.940,12.316,25.075,38.000,12.368,6.174,6.203,13.118,-0.117,0.729,-0.559,0.427,1.312,-0.122,80.000,4795.000,1.000
43.846,10.749,23.147,36.917,10.499,3.777,5.004,14.904,-0.117,0.729,-0.563,0.458,1.221,-0.183,80.000,4796.000,1.000
46.701,9.686,20.845,35.348,8.577,3.287,4.416,16.491,-0.115,0.729,-0.564,0.488,1.160,-0.061,80.000,4797.000,1.000
49.390,9.534,18.771,33.716,7.100,4.748,4.507,17.537,-0.116,0.729,-0.559,0.549,1.190,-0.183,80.000,4798.000,1.000
51.567,10.178,17.281,32.294,6.293,7.642,5.053,17.848,-0.115,0.727,-0.555,0.610,1.221,-0.214,80.000,4799.000,1.000
52.851,11.117,16.440,31.122,5.981,11.048,5.654,17.411,-0.114,0.727,-0.558,0.641,1.282,-0.275,80.000,4800.000,1.000
52.968,11.770,16.060,30.045,5.675,13.881,5.899,16.308,-0.115,0.728,-0.559,0.702,1.251,-0.244,80.000,4801.000,1.000
51.902,11.800,15.878,28.875,4.885,15.253,5.515,14.688,-0.118,0.727,-0.559,0.488,1.312,-0.275,80.000,4802.000,1.000
49.986,11.238,15.702,27.553,3.397,14.776,4.450,12.833,-0.116,0.730,-0.563,0.519,1.221,-0.244,80.000,4803.000,1.000
47.764,10.405,15.476,26.195,1.455,12.736,2.944,11.131,-0.116,0.730,-0.559,0.488,1.282,-0.305,80.000,4804.000,1.000
45.565,9.651,15.210,24.888,-0.306,9.991,1.528,9.878,-0.117,0.730,-0.556,0.458,1.282,-0.244,80.000,4805.000,1.000
43.180,8.982,14.737,23.424,-1.328,7.469,0.740,9.083,-0.117,0.732,-0.558,0.427,1.251,-0.244,80.000,4806.000,1.000
40.148,7.977,13.679,21.385,-1.541,5.600,0.795,8.601,-0.115,0.729,-0.558,0.488,1.221,-0.336,80.000,4807.000,1.000
36.395,6.212,11.822,18.580,-1.287,4.246,1.575,8.395,-0.116,0.727,-0.557,0.397,1.221,-0.336,80.000,4808.000,1.000
32.520,3.797,9.517,15.424,-0.884,3.084,2.805,8.584,-0.116,0.728,-0.558,0.427,1.251,-0.305,80.000,4809.000,1.000
29.444,1.396,7.560,12.864,-0.379,1.958,4.124,9.242,-0.117,0.729,-0.555,0.427,1.251,-0.244,80.000,4810.000,1.000
27.780,-0.217,6.631,11.768,0.369,0.998,5.161,10.290,-0.117,0.729,-0.556,0.397,1.282,-0.183,80.000,4811.000,1.000
27.495,-0.542,6.972,12.419,1.573,0.606,5.794,11.631,-0.116,0.730,-0.557,0.397,1.282,-0.153,80.000,4812.000,1.000
28.089,0.498,8.475,14.609,3.480,1.232,6.257,13.253,-0.117,0.731,-0.558,0.275,1.221,-0.244,80.000,4813.000,1.000
28.989,2.554,10.782,17.918,6.195,3.066,6.911,15.072,-0.117,0.729,-0.559,0.305,1.221,-0.305,80.000,4814.000,1.000
29.911,5.062,13.395,21.837,9.541,6.012,8.007,16.852,-0.116,0.729,-0.559,0.458,1.312,-0.244,80.000,4815.000,1.000
31.067,7.671,15.966,25.888,13.164,9.869,9.648,18.370,-0.116,0.728,-0.556,0.397,1.312,-0.122,80.000,4816.000,1.000
32.992,10.435,18.487,29.691,16.646,14.362,11.696,19.468,-0.116,0.728,-0.555,0.427,1.282,-0.183,80.000,4817.000,1.000
36.068,13.604,21.115,32.929,19.514,19.027,13.676,19.920,-0.116,0.729,-0.558,0.458,1.221,-0.214,80.000,4818.000,1.000
40.175,17.257,23.868,35.428,21.353,23.279,15.029,19.478,-0.115,0.731,-0.558,0.488,1.221,-0.153,80.000,4819.000,1.000
44.769,21.080,26.493,37.285,21.957,26.582,15.480,18.118,-0.116,0.729,-0.559,0.519,1.129,-0.122,80.000,4820.000,1.000
49.223,24.458,28.615,38.654,21.329,28.538,15.038,16.083,-0.116,0.727,-0.559,0.610,1.160,-0.092,80.000,4821.000,1.000
53.001,26.781,29.953,39.243,19.559,28.955,13.702,13.624,-0.115,0.728,-0.558,0.702,1.251,-0.153,80.000,4822.000,1.000
55.665,27.680,30.442,38.393,16.819,27.938,11.422,10.893,-0.116,0.727,-0.556,0.732,1.343,-0.275,80.000,4823.000,1.000
57.042,27.173,30.309,35.935,13.572,25.931,8.443,8.195,-0.116,0.728,-0.555,0.854,1.221,-0.183,80.000,4824.000,1.000
57.357,25.745,29.963,32.583,10.597,23.640,5.500,6.146,-0.116,0.728,-0.558,0.854,1.190,-0.061,80.000,4825.000,1.000
56.987,24.108,29.597,29.216,8.557,21.824,3.477,5.267,-0.117,0.729,-0.559,0.916,1.251,-0.031,80.000,4826.000,1.000
56.044,22.713,28.958,26.175,7.548,20.983,2.818,5.523,-0.115,0.730,-0.554,0.916,1.282,-0.122,80.000,4827.000,1.000
54.399,21.537,27.701,23.470,7.262,21.182,3.384,6.500,-0.114,0.730,-0.557,0.977,1.312,-0.183,80.000,4828.000,1.000
52.000,20.369,25.797,21.216,7.477,22.089,4.707,7.872,-0.115,0.730,-0.562,0.977,1.373,-0.214,80.000,4829.000,1.000
48.914,19.112,23.464,19.507,8.140,23.033,6.182,9.440,-0.115,0.729,-0.557,1.038,1.343,-0.153,80.000,4830.000,1.000
45.304,17.938,21.029,18.305,9.245,23.304,7.292,10.995,-0.116,0.728,-0.555,1.038,1.434,-0.183,80.000,4831.000,1.000
41.655,17.345,19.043,17.715,10.876,22.678,7.946,12.407,-0.115,0.728,-0.555,1.007,1.404,-0.214,80.000,4832.000,1.000
38.692,17.867,18.162,18.003,13.141,21.568,8.446,13.584,-0.114,0.728,-0.553,1.038,1.404,-0.183,80.000,4833.000,1.000
36.832,19.617,18.659,19.158,15.881,20.632,8.981,14.199,-0.116,0.729,-0.561,1.129,1.373,-0.244,80.000,4834.000,1.000
35.862,22.159,20.192,20.651,18.524,20.282,9.244,13.657,-0.114,0.729,-0.556,1.129,1.434,-0.275,80.000,4835.000,1.000
35.183,24.707,21.989,21.682,20.257,20.420,8.621,11.493,-0.114,0.730,-0.555,1.129,1.495,-0.244,80.000,4836.000,1.000
34.158,26.429,23.178,21.586,20.445,20.509,6.766,7.880,-0.114,0.729,-0.554,1.221,1.526,-0.275,80.000,4837.000,1.000
32.144,26.734,23.046,20.107,18.911,19.909,3.966,3.698,-0.114,0.729,-0.554,1.251,1.556,-0.244,80.000,4838.000,1.000
28.562,25.449,21.259,17.443,15.880,18.270,0.887,0.007,-0.115,0.730,-0.554,1.251,1.556,-0.214,80.000,4839.000,1.000
23.395,22.851,18.085,14.205,11.817,15.760,-1.915,-2.540,-0.113,0.729,-0.554,1.251,1.587,-0.183,80.000,4840.000,1.000
17.549,19.577,14.467,11.321,7.390,13.000,-4.168,-3.801,-0.115,0.729,-0.555,1.251,1.617,-0.214,80.000,4841.000,1.000
12.349,16.359,11.613,9.614,3.328,10.714,-5.820,-4.036,-0.114,0.729,-0.556,1.251,1.587,-0.244,80.000,4842.000,1.000
8.528,13.651,10.155,9.074,0.037,9.272,-7.086,-3.879,-0.115,0.728,-0.557,1.282,1.587,-0.275,80.000,4843.000,1.000
5.698,11.310,9.615,8.774,-2.629,8.390,-8.450,-4.110,-0.115,0.728,-0.558,1.312,1.587,-0.336,80.000,4844.000,1.000
2.826,8.687,8.825,7.843,-5.112,7.306,-10.320,-5.138,-0.116,0.728,-0.556,1.343,1.678,-0.244,80.000,4845.000,1.000
-0.899,5.184,6.868,6.243,-7.746,5.306,-12.661,-6.767,-0.116,0.729,-0.554,1.373,1.648,-0.275,80.000,4846.000,1.000
-5.663,0.704,3.546,4.396,-10.734,2.068,-15.081,-8.584,-0.116,0.730,-0.556,1.404,1.709,-0.305,80.000,4847.000,1.000
-11.162,-4.463,-0.864,2.431,-14.388,-2.411,-17.315,-10.504,-0.116,0.730,-0.559,1.343,1.709,-0.214,80.000,4848.000,1.000
-16.808,-9.959,-5.919,0.087,-18.995,-7.902,-19.391,-12.741,-0.116,0.729,-0.559,1.404,1.678,-0.366,80.000,4849.000,1.000
-21.927,-15.315,-10.968,-2.730,-24.190,-13.765,-21.206,-15.203,-0.116,0.729,-0.560,1.373,1.709,-0.305,80.000,4850.000,1.000
-25.962,-19.785,-15.030,-5.591,-28.681,-18.887,-22.217,-17.255,-0.115,0.729,-0.559,1.434,1.648,-0.153,80.000,4851.000,1.000
-28.534,-22.509,-17.084,-7.881,-30.957,-22.052,-21.833,-18.277,-0.116,0.730,-0.555,1.465,1.678,-0.153,80.000,4852.000,1.000
-29.475,-23.005,-16.722,-9.260,-30.312,-22.536,-19.995,-18.216,-0.118,0.728,-0.554,1.526,1.648,-0.183,80.000,4853.000,1.000
-29.027,-21.523,-14.527,-9.715,-27.133,-20.425,-17.221,-17.418,-0.116,0.727,-0.557,1.495,1.587,-0.153,80.000,4854.000,1.000
-27.939,-18.880,-11.736,-9.395,-22.356,-16.495,-14.172,-16.146,-0.115,0.729,-0.560,1.373,1.678,-0.122,80.000,4855.000,1.000
-27.085,-15.917,-9.404,-8.535,-16.878,-11.830,-11.302,-14.437,-0.115,0.729,-0.560,1.373,1.617,-0.122,80.000,4856.000,1.000
-26.832,-13.075,-7.835,-7.379,-11.396,-7.464,-8.872,-12.325,-0.116,0.730,-0.559,1.373,1.587,-0.092,80.000,4857.000,1.000
-26.884,-10.408,-6.676,-6.094,-6.456,-4.131,-7.095,-10.041,-0.115,0.726,-0.558,1.373,1.526,-0.092,80.000,4858.000,1.000
-26.784,-7.839,-5.460,-4.856,-2.469,-2.120,-6.110,-7.930,-0.115,0.727,-0.557,1.404,1.495,-0.061,80.000,4859.000,1.000
-26.528,-5.487,-4.136,-4.107,0.181,-1.345,-5.959,-6.253,-0.115,0.727,-0.556,1.556,1.434,-0.031,80.000,4860.000,1.000
-26.651,-3.892,-3.257,-4.519,1.010,-1.564,-6.703,-5.156,-0.115,0.727,-0.560,1.465,1.465,-0.031,80.000,4861.000,1.000
-27.627,-3.704,-3.546,-6.406,-0.264,-2.452,-8.322,-4.690,-0.115,0.728,-0.559,1.495,1.434,-0.031,80.000,4862.000,1.000
-29.314,-5.010,-5.158,-9.239,-3.151,-3.560,-10.403,-4.747,-0.115,0.728,-0.562,1.587,1.465,0.000,80.000,4863.000,1.000
-31.080,-7.152,-7.417,-11.948,-6.409,-4.491,-12.235,-5.134,-0.115,0.727,-0.559,1.556,1.373,0.092,80.000,4864.000,1.000
-32.328,-9.315,-9.321,-13.694,-8.858,-5.181,-13.350,-5.827,-0.116,0.727,-0.560,1.587,1.312,0.092,80.000,4865.000,1.000
-32.747,-11.082,-10.247,-14.326,-10.099,-5.912,-13.816,-7.014,-0.114,0.728,-0.559,1.587,1.282,-0.031,80.000,4866.000,1.000
-32.315,-12.382,-10.181,-14.201,-10.432,-6.961,-13.896,-8.851,-0.114,0.727,-0.560,1.495,1.343,0.000,80.000,4867.000,1.000
-31.293,-13.195,-9.496,-13.772,-10.357,-8.330,-13.624,-11.272,-0.115,0.728,-0.558,1.495,1.312,0.061,80.000,4868.000,1.000
-30.123,-13.514,-8.633,-13.419,-10.264,-9.797,-12.819,-13.981,-0.117,0.727,-0.559,1.495,1.312,0.092,80.000,4869.000,1.000
-29.163,-13.405,-7.856,-13.564,-10.337,-11.087,-11.379,-16.549,-0.115,0.727,-0.558,1.556,1.282,0.031,80.000,4870.000,1.000
-28.474,-12.941,-7.185,-14.532,-10.522,-11.949,-9.425,-18.544,-0.114,0.725,-0.559,1.617,1.343,0.061,80.000,4871.000,1.000
-27.926,-12.188,-6.531,-16.177,-10.619,-12.216,-7.280,-19.714,-0.114,0.725,-0.559,1.617,1.282,0.061,80.000,4872.000,1.000
-27.440,-11.362,-5.947,-17.913,-10.567,-11.946,-5.463,-20.164,-0.114,0.729,-0.560,1.678,1.343,0.122,80.000,4873.000,1.000
-27.044,-10.861,-5.663,-19.117,-10.569,-11.418,-4.566,-20.252,-0.112,0.728,-0.560,1.617,1.343,0.214,80.000,4874.000,1.000
-26.724,-10.982,-5.815,-19.366,-10.788,-10.826,-4.825,-20.196,-0.112,0.729,-0.561,1.648,1.251,0.092,80.000,4875.000,1.000
-26.458,-11.676,-6.274,-18.607,-11.039,-10.079,-5.797,-19.824,-0.113,0.728,-0.561,1.617,1.282,0.122,80.000,4876.000,1.000
-26.334,-12.665,-6.864,-17.279,-10.923,-9.021,-6.604,-18.756,-0.113,0.727,-0.557,1.587,1.160,0.061,80.000,4877.000,1.000
-26.486,-13.789,-7.638,-16.066,-10.254,-7.789,-6.570,-16.771,-0.114,0.728,-0.558,1.526,1.221,0.092,80.000,4878.000,1.000
-26.979,-15.207,-8.868,-15.485,-9.315,-6.848,-5.659,-14.046,-0.114,0.728,-0.560,1.465,1.190,0.000,80.000,4879.000,1.000
-27.899,-17.240,-10.810,-15.762,-8.706,-6.738,-4.394,-11.130,-0.113,0.728,-0.557,1.495,1.190,-0.122,80.000,4880.000,1.000
-29.393,-19.955,-13.556,-16.920,-8.941,-7.739,-3.383,-8.644,-0.114,0.728,-0.560,1.404,1.129,-0.061,80.000,4881.000,1.000
-31.393,-22.906,-16.950,-18.830,-10.073,-9.596,-2.896,-6.919,-0.113,0.728,-0.560,1.373,1.160,0.000,80.000,4882.000,1.000
-33.304,-25.192,-20.382,-21.116,-11.586,-11.525,-2.753,-5.854,-0.114,0.729,-0.562,1.312,1.221,0.000,80.000,4883.000,1.000
-34.200,-25.842,-22.761,-23.146,-12.591,-12.617,-2.443,-5.100,-0.114,0.731,-0.562,1.221,1.251,0.061,80.000,4884.000,1.000
-33.471,-24.334,-23.079,-24.308,-12.267,-12.277,-1.330,-4.360,-0.115,0.729,-0.560,1.190,1.129,-0.031,80.000,4885.000,1.000
-31.190,-20.850,-21.076,-24.254,-10.284,-10.273,1.108,-3.420,-0.116,0.730,-0.562,1.099,1.129,-0.183,80.000,4886.000,1.000
-27.922,-16.069,-17.307,-22.849,-6.868,-6.546,5.054,-1.989,-0.113,0.729,-0.565,1.160,1.129,-0.153,80.000,4887.000,1.000
-24.535,-10.894,-12.861,-20.187,-2.636,-1.297,10.133,0.130,-0.114,0.730,-0.560,1.099,1.129,-0.122,80.000,4888.000,1.000
-22.063,-6.402,-9.128,-16.901,1.509,4.673,15.314,2.619,-0.114,0.730,-0.562,1.129,1.190,-0.092,80.000,4889.000,1.000
-21.165,-3.643,-7.312,-14.074,4.536,10.019,19.215,4.713,-0.112,0.729,-0.563,0.977,1.221,-0.092,80.000,4890.000,1.000
-21.573,-3.098,-7.664,-12.466,5.747,13.476,20.814,5.883,-0.113,0.730,-0.561,0.916,1.129,0.000,80.000,4891.000,1.000
-22.400,-4.317,-9.275,-12.039,5.286,14.581,20.085,6.305,-0.113,0.729,-0.559,0.793,1.190,-0.031,80.000,4892.000,1.000
-23.025,-6.206,-10.827,-12.387,4.077,13.881,17.983,6.535,-0.112,0.728,-0.558,0.763,1.221,-0.122,80.000,4893.000,1.000
-23.419,-7.726,-11.500,-13.206,3.060,12.416,15.676,6.819,-0.112,0.730,-0.561,0.732,1.221,-0.092,80.000,4894.000,1.000
-23.660,-8.380,-11.223,-14.230,2.478,10.923,13.733,6.828,-0.114,0.727,-0.563,0.671,1.282,-0.031,80.000,4895.000,1.000
-23.546,-8.260,-10.437,-15.138,1.903,9.496,12.021,6.028,-0.115,0.729,-0.559,0.671,1.312,0.092,80.000,4896.000,1.000
-22.946,-7.889,-9.818,-15.769,0.779,7.847,10.163,4.157,-0.115,0.727,-0.559,0.702,1.251,0.031,80.000,4897.000,1.000
-22.201,-7.885,-9.944,-16.316,-1.088,5.803,8.007,1.418,-0.113,0.729,-0.561,0.763,1.099,0.061,80.000,4898.000,1.000
-21.872,-8.536,-10.987,-17.174,-3.385,3.539,5.747,-1.617,-0.113,0.727,-0.561,0.671,1.190,-0.031,80.000,4899.000,1.000
-22.279,-9.699,-12.706,-18.595,-5.557,1.345,3.725,-4.302,-0.113,0.728,-0.560,0.641,1.160,0.000,80.000,4900.000,1.000
-23.436,-10.982,-14.672,-20.456,-7.216,-0.610,2.203,-6.259,-0.113,0.730,-0.558,0.671,1.221,-0.031,80.000,4901.000,1.000
-25.066,-11.845,-16.384,-22.274,-8.234,-2.124,1.324,-7.528,-0.113,0.727,-0.557,0.763,1.160,-0.031,80.000,4902.000,1.000
-26.416,-11.664,-17.290,-23.336,-8.527,-2.721,1.182,-8.341,-0.114,0.725,-0.560,0.763,1.068,-0.092,80.000,4903.000,1.000
-26.410,-10.117,-16.983,-22.972,-7.949,-1.834,1.892,-8.769,-0.113,0.724,-0.558,0.732,1.068,-0.092,80.000,4904.000,1.000
-24.492,-7.603,-15.489,-21.003,-6.453,0.670,3.462,-8.663,-0.114,0.721,-0.558,0.732,1.129,-0.092,80.000,4905.000,1.000
-21.225,-5.082,-13.245,-17.940,-4.333,4.122,5.531,-7.881,-0.113,0.721,-0.560,0.763,1.190,-0.153,80.000,4906.000,1.000
-17.793,-3.402,-10.753,-14.575,-2.214,7.258,7.378,-6.451,-0.112,0.722,-0.560,0.854,1.160,-0.183,80.000,4907.000,1.000
-15.100,-2.814,-8.390,-11.545,-0.776,8.913,8.324,-4.564,-0.112,0.724,-0.559,0.916,1.099,-0.214,80.000,4908.000,1.000
-13.487,-3.010,-6.510,-9.311,-0.394,8.726,8.175,-2.523,-0.113,0.724,-0.561,1.099,1.160,-0.244,80.000,4909.000,1.000
-12.804,-3.374,-5.334,-8.095,-0.928,7.250,7.291,-0.639,-0.112,0.725,-0.563,1.160,1.160,-0.275,80.000,4910.000,1.000
-12.504,-3.318,-4.692,-7.752,-1.908,5.281,6.241,0.858,-0.112,0.724,-0.560,1.221,1.160,-0.336,80.000,4911.000,1.000
-11.964,-2.658,-4.166,-7.999,-2.954,3.183,5.396,1.836,-0.112,0.724,-0.562,1.129,1.099,-0.336,80.000,4912.000,1.000
-11.012,-1.711,-3.538,-8.650,-3.968,0.945,4.875,2.272,-0.111,0.724,-0.563,1.221,1.099,-0.366,80.000,4913.000,1.000
-10.165,-1.041,-3.073,-9.633,-5.099,-1.422,4.617,2.168,-0.113,0.726,-0.563,1.221,1.007,-0.427,80.000,4914.000,1.000
-10.233,-1.154,-3.359,-10.933,-6.640,-3.741,4.380,1.496,-0.112,0.727,-0.564,1.221,1.129,-0.488,80.000,4915.000,1.000
-11.567,-2.157,-4.754,-12.470,-8.725,-5.629,3.956,0.351,-0.113,0.729,-0.564,1.221,0.977,-0.366,80.000,4916.000,1.000
-13.667,-3.530,-6.897,-13.965,-11.001,-6.476,3.460,-0.967,-0.112,0.730,-0.560,1.221,1.068,-0.336,80.000,4917.000,1.000
-15.483,-4.348,-8.770,-14.943,-12.699,-5.771,3.281,-2.107,-0.112,0.730,-0.562,1.160,1.099,-0.397,80.000,4918.000,1.000
-15.999,-3.831,-9.240,-14.877,-13.007,-3.523,3.836,-2.690,-0.115,0.733,-0.562,1.099,1.129,-0.458,80.000,4919.000,1.000
-14.575,-1.656,-7.593,-13.315,-11.338,-0.206,5.439,-2.140,-0.115,0.734,-0.561,1.007,0.977,-0.549,80.000,4920.000,1.000
-11.229,2.011,-3.864,-10.116,-7.505,3.622,8.180,0.132,-0.116,0.734,-0.560,0.946,0.916,-0.549,80.000,4921.000,1.000
-6.832,6.561,1.069,-5.799,-1.928,7.543,11.783,4.185,-0.115,0.734,-0.560,0.946,0.885,-0.519,80.000,4922.000,1.000
-2.687,11.215,5.884,-1.400,4.460,11.347,15.680,9.313,-0.114,0.734,-0.559,0.824,0.946,-0.549,80.000,4923.000,1.000
0.366,15.410,9.524,2.161,10.636,15.041,19.282,14.352,-0.113,0.733,-0.562,0.702,0.824,-0.549,80.000,4924.000,1.000
2.273,18.911,11.574,4.341,15.770,18.621,22.165,18.140,-0.114,0.732,-0.562,0.610,0.793,-0.488,80.000,4925.000,1.000
3.290,21.594,12.113,4.848,19.253,21.765,24.046,19.904,-0.115,0.733,-0.561,0.610,0.671,-0.427,80.000,4926.000,1.000
3.506,23.219,11.385,3.813,20.802,23.876,24.803,19.648,-0.115,0.731,-0.563,0.580,0.671,-0.336,80.000,4927.000,1.000
2.933,23.454,9.672,1.974,20.543,24.487,24.484,18.146,-0.114,0.730,-0.562,0.427,0.702,-0.275,80.000,4928.000,1.000
1.835,22.117,7.343,0.274,18.805,23.480,23.117,16.265,-0.114,0.729,-0.561,0.397,0.702,-0.305,80.000,4929.000,1.000
0.608,19.390,4.823,-0.820,15.807,21.013,20.476,14.250,-0.114,0.727,-0.560,0.366,0.580,-0.305,80.000,4930.000,1.000
-0.712,15.780,2.315,-1.629,11.675,17.441,16.270,11.792,-0.114,0.727,-0.558,0.366,0.641,-0.275,80.000,4931.000,1.000
-2.419,11.888,-0.281,-2.808,6.805,13.335,10.701,8.798,-0.116,0.727,-0.556,0.305,0.671,-0.153,80.000,4932.000,1.000
-4.576,8.250,-3.040,-4.521,2.043,9.305,4.749,5.890,-0.114,0.728,-0.555,0.244,0.641,-0.122,80.000,4933.000,1.000
-6.995,5.091,-5.913,-6.382,-1.841,5.565,-0.340,3.887,-0.115,0.727,-0.559,0.214,0.580,-0.214,80.000,4934.000,1.000
-9.643,2.134,-8.987,-8.179,-4.822,1.807,-3.894,2.894,-0.114,0.727,-0.557,0.366,0.580,-0.214,80.000,4935.000,1.000
-12.337,-0.996,-12.243,-9.995,-7.398,-2.283,-6.040,2.203,-0.115,0.726,-0.559,0.336,0.641,-0.183,80.000,4936.000,1.000
-14.150,-4.053,-14.960,-11.495,-9.696,-6.418,-7.190,1.102,-0.115,0.726,-0.560,0.214,0.671,-0.153,80.000,4937.000,1.000
-13.944,-6.219,-15.973,-11.906,-11.170,-9.706,-7.502,-0.455,-0.116,0.728,-0.559,0.336,0.610,-0.183,80.000,4938.000,1.000
-11.632,-6.926,-14.738,-10.991,-11.238,-11.227,-6.883,-1.919,-0.116,0.728,-0.558,0.397,0.519,-0.244,80.000,4939.000,1.000
-8.380,-6.375,-11.866,-9.392,-9.921,-10.580,-5.349,-2.616,-0.116,0.728,-0.559,0.397,0.488,-0.244,80.000,4940.000,1.000
-5.566,-5.284,-8.632,-7.916,-7.809,-8.124,-3.276,-2.212,-0.115,0.729,-0.561,0.427,0.519,-0.183,80.000,4941.000,1.000
-3.994,-4.381,-6.174,-6.981,-5.607,-4.884,-1.315,-0.961,-0.116,0.731,-0.561,0.366,0.549,-0.336,80.000,4942.000,1.000
-3.841,-4.044,-4.983,-6.664,-3.798,-2.109,-0.087,0.383,-0.115,0.733,-0.559,0.336,0.488,-0.305,80.000,4943.000,1.000
-4.679,-4.135,-4.813,-6.791,-2.583,-0.659,0.042,1.037,-0.114,0.732,-0.559,0.397,0.519,-0.305,80.000,4944.000,1.000
-5.572,-4.175,-5.054,-7.009,-2.052,-0.657,-0.960,0.711,-0.116,0.731,-0.558,0.336,0.427,-0.397,80.000,4945.000,1.000
-5.715,-3.834,-5.275,-7.146,-2.329,-1.644,-2.820,-0.272,-0.116,0.732,-0.558,0.366,0.519,-0.427,80.000,4946.000,1.000
-5.041,-3.232,-5.432,-7.450,-3.503,-3.097,-5.087,-1.267,-0.114,0.731,-0.559,0.275,0.458,-0.427,80.000,4947.000,1.000
-4.018,-2.726,-5.631,-8.219,-5.424,-4.809,-7.328,-1.630,-0.114,0.732,-0.558,0.305,0.519,-0.458,80.000,4948.000,1.000
-3.023,-2.553,-5.892,-9.303,-7.626,-6.811,-9.234,-0.884,-0.114,0.730,-0.561,0.183,0.549,-0.427,80.000,4949.000,1.000
-2.147,-2.643,-6.157,-10.155,-9.496,-8.988,-10.569,1.068,-0.115,0.730,-0.557,0.122,0.519,-0.427,80.000,4950.000,1.000
-1.401,-2.609,-6.326,-10.266,-10.510,-10.812,-11.046,3.739,-0.114,0.729,-0.558,0.122,0.610,-0.458,80.000,4951.000,1.000
-0.796,-2.016,-6.267,-9.404,-10.430,-11.560,-10.390,6.232,-0.112,0.729,-0.556,0.153,0.702,-0.397,80.000,4952.000,1.000
-0.228,-0.797,-5.863,-7.552,-9.362,-10.877,-8.550,7.843,-0.113,0.731,-0.557,0.183,0.732,-0.397,80.000,4953.000,1.000
0.521,0.714,-5.020,-4.800,-7.513,-8.989,-5.764,8.588,-0.111,0.731,-0.558,0.183,0.793,-0.305,80.000,4954.000,1.000
1.521,2.183,-3.683,-1.451,-4.938,-6.336,-2.397,9.060,-0.112,0.731,-0.556,0.214,0.885,-0.366,80.000,4955.000,1.000
2.479,3.478,-1.977,1.879,-1.670,-3.206,1.132,9.754,-0.115,0.731,-0.555,0.214,1.038,-0.305,80.000,4956.000,1.000
2.891,4.428,-0.315,4.405,1.964,0.163,4.306,10.642,-0.116,0.733,-0.556,0.214,1.007,-0.336,80.000,4957.000,1.000
2.413,4.723,0.791,5.449,5.303,3.393,6.545,11.286,-0.117,0.733,-0.556,0.244,0.977,-0.336,80.000,4958.000,1.000
1.071,4.198,1.079,4.786,7.619,6.067,7.415,11.142,-0.116,0.732,-0.559,0.214,1.038,-0.366,80.000,4959.000,1.000
-0.841,3.005,0.587,2.750,8.356,7.797,6.726,9.796,-0.116,0.730,-0.559,0.214,1.068,-0.427,80.000,4960.000,1.000
-3.019,1.348,-0.631,-0.145,7.134,8.092,4.421,7.077,-0.115,0.730,-0.560,0.275,1.099,-0.427,80.000,4961.000,1.000
-5.263,-0.758,-2.613,-3.532,3.848,6.465,0.587,3.196,-0.116,0.731,-0.560,0.275,1.038,-0.366,80.000,4962.000,1.000
-7.380,-3.312,-5.215,-7.043,-0.999,2.882,-4.320,-1.185,-0.117,0.730,-0.558,0.275,1.007,-0.397,80.000,4963.000,1.000
-9.233,-6.145,-8.009,-10.242,-6.339,-2.045,-9.513,-5.189,-0.115,0.729,-0.556,0.397,1.099,-0.336,80.000,4964.000,1.000
-10.818,-9.047,-10.538,-12.782,-11.127,-7.424,-14.253,-8.152,-0.116,0.730,-0.554,0.458,1.129,-0.458,80.000,4965.000,1.000
-12.004,-11.791,-12.399,-14.373,-14.742,-12.498,-18.064,-9.853,-0.117,0.729,-0.553,0.519,1.160,-0.427,80.000,4966.000,1.000
-12.351,-13.966,-13.165,-14.757,-16.936,-16.704,-20.657,-10.521,-0.115,0.731,-0.555,0.427,1.190,-0.336,80.000,4967.000,1.000
-11.602,-15.116,-12.670,-14.125,-17.847,-19.671,-21.974,-10.825,-0.115,0.729,-0.557,0.610,1.068,-0.336,80.000,4968.000,1.000
-10.200,-15.214,-11.389,-13.396,-18.135,-21.330,-22.336,-11.621,-0.114,0.727,-0.555,0.732,1.099,-0.336,80.000,4969.000,1.000
-9.000,-14.776,-10.269,-13.602,-18.679,-21.870,-22.258,-13.391,-0.117,0.729,-0.555,0.793,1.160,-0.366,80.000,4970.000,1.000
-8.665,-14.425,-10.183,-15.071,-19.950,-21.491,-22.022,-15.872,-0.116,0.729,-0.555,0.793,1.312,-0.397,80.000,4971.000,1.000
-9.493,-14.466,-11.587,-17.421,-21.828,-20.388,-21.628,-18.349,-0.117,0.730,-0.556,1.007,1.251,-0.336,80.000,4972.000,1.000
-11.459,-14.825,-14.413,-20.047,-23.956,-18.943,-21.161,-20.323,-0.117,0.729,-0.558,1.007,1.160,-0.366,80.000,4973.000,1.000
-14.166,-15.205,-18.127,-22.440,-26.000,-17.699,-20.948,-21.830,-0.117,0.730,-0.559,1.129,1.160,-0.366,80.000,4974.000,1.000
-16.963,-15.302,-21.963,-24.277,-27.575,-16.961,-21.124,-23.092,-0.116,0.729,-0.558,1.068,1.160,-0.336,80.000,4975.000,1.000
-19.260,-14.959,-25.178,-25.437,-28.168,-16.472,-21.259,-24.012,-0.116,0.729,-0.557,1.129,1.251,-0.275,80.000,4976.000,1.000
-20.701,-14.177,-27.180,-25.906,-27.335,-15.660,-20.702,-24.189,-0.115,0.727,-0.557,1.221,1.251,-0.275,80.000,4977.000,1.000
-21.044,-12.962,-27.567,-25.621,-24.956,-14.150,-19.195,-23.332,-0.116,0.727,-0.559,1.282,1.221,-0.244,80.000,4978.000,1.000
-20.105,-11.190,-26.145,-24.444,-21.262,-12.011,-16.977,-21.495,-0.117,0.728,-0.558,1.343,1.221,-0.275,80.000,4979.000,1.000
-17.975,-8.786,-23.015,-22.321,-16.671,-9.615,-14.448,-18.985,-0.117,0.729,-0.558,1.434,1.160,-0.275,80.000,4980.000,1.000
-15.112,-6.009,-18.650,-19.430,-11.706,-7.384,-11.929,-16.203,-0.115,0.726,-0.556,1.495,1.251,-0.183,80.000,4981.000,1.000
-11.963,-3.341,-13.779,-16.070,-6.967,-5.579,-9.621,-13.503,-0.116,0.724,-0.557,1.648,1.312,-0.153,80.000,4982.000,1.000
-8.602,-1.101,-9.060,-12.472,-2.984,-4.186,-7.626,-11.069,-0.115,0.725,-0.557,1.678,1.373,-0.092,80.000,4983.000,1.000
-5.039,0.621,-4.946,-8.993,-0.081,-2.993,-5.931,-8.932,-0.116,0.723,-0.553,1.862,1.373,-0.092,80.000,4984.000,1.000
-1.613,1.812,-1.741,-6.385,1.712,-1.720,-4.386,-7.079,-0.117,0.725,-0.556,1.862,1.282,-0.092,80.000,4985.000,1.000
1.273,2.631,0.473,-5.358,2.704,-0.022,-2.759,-5.504,-0.118,0.726,-0.559,1.984,1.282,-0.122,80.000,4986.000,1.000
3.535,3.461,1.858,-5.864,3.400,2.405,-0.942,-4.170,-0.116,0.725,-0.558,2.014,1.221,-0.031,80.000,4987.000,1.000
5.147,4.612,2.597,-7.175,4.151,5.533,0.921,-3.005,-0.116,0.725,-0.555,2.136,1.221,-0.092,80.000,4988.000,1.000
5.670,5.956,2.625,-8.710,4.898,8.793,2.508,-2.015,-0.118,0.728,-0.554,2.136,1.221,-0.031,80.000,4989.000,1.000
4.391,6.931,1.669,-10.477,5.205,11.228,3.440,-1.404,-0.118,0.727,-0.558,2.197,1.404,-0.092,80.000,4990.000,1.000
1.123,6.999,-0.338,-12.574,4.665,12.009,3.514,-1.360,-0.116,0.728,-0.560,2.167,1.312,-0.153,80.000,4991.000,1.000
-3.295,6.104,-2.922,-14.613,3.379,10.936,2.933,-1.710,-0.116,0.729,-0.559,2.197,1.190,-0.092,80.000,4992.000,1.000
-7.472,4.638,-5.282,-15.890,1.983,8.472,2.237,-1.983,-0.117,0.731,-0.558,2.106,1.160,-0.061,80.000,4993.000,1.000
-10.328,3.052,-6.837,-15.862,1.243,5.469,1.997,-1.734,-0.116,0.731,-0.560,2.045,1.221,-0.031,80.000,4994.000,1.000
-11.448,1.655,-7.503,-14.364,1.656,2.896,2.575,-0.738,-0.115,0.734,-0.558,2.045,1.221,-0.031,80.000,4995.000,1.000
-11.027,0.734,-7.437,-11.618,3.289,1.602,4.014,0.971,-0.114,0.735,-0.560,1.923,1.251,-0.092,80.000,4996.000,1.000
-9.784,0.564,-6.791,-8.262,5.774,1.979,5.973,3.078,-0.114,0.734,-0.562,1.831,1.190,-0.031,80.000,4997.000,1.000
-8.733,1.127,-5.865,-5.267,8.370,3.646,7.772,5.028,-0.114,0.733,-0.558,1.740,1.160,-0.031,80.000,4998.000,1.000
-8.523,1.974,-5.142,-3.494,10.243,5.520,8.710,6.282,-0.115,0.732,-0.560,1.678,1.251,0.000,80.000,4999.000,1.000
-8.977,2.496,-4.933,-3.242,10.886,6.386,8.468,6.629,-0.116,0.732,-0.560,1.678,1.343,0.031,80.000,5000.000,1.000
-9.524,2.307,-5.192,-4.294,10.303,5.585,7.268,6.239,-0.115,0.731,-0.559,1.526,1.312,0.061,80.000,5001.000,1.000
-9.854,1.429,-5.682,-6.139,8.849,3.381,5.688,5.474,-0.114,0.730,-0.558,1.465,1.251,0.000,80.000,5002.000,1.000
-9.932,0.279,-6.155,-8.014,6.963,0.761,4.241,4.637,-0.114,0.731,-0.558,1.465,1.221,-0.061,80.000,5003.000,1.000
-9.810,-0.651,-6.527,-9.332,4.892,-1.232,2.976,3.693,-0.115,0.732,-0.558,1.373,1.221,-0.031,80.000,5004.000,1.000
-9.699,-1.215,-7.010,-10.273,2.527,-2.205,1.389,2.165,-0.114,0.731,-0.560,1.312,1.343,-0.031,80.000,5005.000,1.000
-9.902,-1.707,-7.884,-11.537,-0.406,-2.580,-1.148,-0.504,-0.114,0.731,-0.560,1.312,1.343,-0.092,80.000,5006.000,1.000
-10.370,-2.489,-9.083,-13.440,-3.857,-2.978,-4.666,-4.320,-0.115,0.729,-0.561,1.251,1.282,-0.092,80.000,5007.000,1.000
-10.468,-3.501,-10.072,-15.548,-7.172,-3.470,-8.252,-8.490,-0.115,0.729,-0.560,1.190,1.373,-0.061,80.000,5008.000,1.000
-9.457,-4.208,-10.202,-17.185,-9.424,-3.575,-10.548,-11.912,-0.115,0.728,-0.558,1.160,1.312,-0.153,80.000,5009.000,1.000
-7.202,-4.089,-9.249,-18.049,-10.081,-2.891,-10.713,-13.879,-0.114,0.728,-0.559,1.129,1.312,-0.275,80.000,5010.000,1.000
-4.194,-3.011,-7.491,-18.200,-9.263,-1.441,-8.926,-14.271,-0.113,0.728,-0.561,0.977,1.343,-0.244,80.000,5011.000,1.000
-0.981,-1.162,-5.333,-17.606,-7.431,0.496,-6.083,-13.270,-0.114,0.729,-0.561,0.946,1.343,-0.244,80.000,5012.000,1.000
2.023,1.102,-3.111,-16.118,-5.088,2.502,-3.141,-11.210,-0.112,0.730,-0.562,0.977,1.343,-0.275,80.000,5013.000,1.000
4.351,3.323,-1.198,-13.884,-2.694,4.080,-0.693,-8.615,-0.115,0.728,-0.562,0.854,1.312,-0.244,80.000,5014.000,1.000
5.681,5.180,0.090,-11.427,-0.504,4.949,1.139,-6.013,-0.116,0.729,-0.561,0.977,1.312,-0.305,80.000,5015.000,1.000
6.200,6.662,0.778,-9.181,1.571,5.265,2.591,-3.589,-0.114,0.729,-0.560,0.946,1.312,-0.336,80.000,5016.000,1.000
6.465,7.952,1.252,-7.130,3.806,5.360,3.995,-1.150,-0.113,0.730,-0.560,0.977,1.251,-0.427,80.000,5017.000,1.000
6.913,9.133,1.969,-4.913,6.297,5.329,5.519,1.527,-0.113,0.728,-0.557,0.946,1.251,-0.397,80.000,5018.000,1.000
7.677,10.050,3.194,-2.136,8.741,5.005,7.030,4.410,-0.112,0.728,-0.558,0.946,1.282,-0.427,80.000,5019.000,1.000
8.742,10.454,4.947,1.338,10.572,4.326,8.162,7.186,-0.115,0.728,-0.561,1.129,1.404,-0.397,80.000,5020.000,1.000
10.004,10.322,7.083,5.156,11.361,3.652,8.590,9.436,-0.117,0.728,-0.558,1.038,1.282,-0.427,80.000,5021.000,1.000
11.167,9.963,9.344,8.558,11.138,3.630,8.258,10.778,-0.115,0.727,-0.554,1.160,1.221,-0.397,80.000,5022.000,1.000
11.762,9.764,11.380,10.811,10.326,4.677,7.327,10.956,-0.115,0.727,-0.556,1.068,1.282,-0.427,80.000,5023.000,1.000
11.446,9.856,12.809,11.631,9.447,6.599,6.046,10.016,-0.116,0.727,-0.556,1.038,1.251,-0.427,80.000,5024.000,1.000
10.254,10.052,13.337,11.225,8.853,8.728,4.732,8.415,-0.117,0.728,-0.557,1.068,1.160,-0.397,80.000,5025.000,1.000
8.489,10.038,12.820,9.955,8.511,10.302,3.623,6.709,-0.118,0.729,-0.558,1.160,1.190,-0.458,80.000,5026.000,1.000
6.575,9.632,11.414,8.086,7.997,10.748,2.655,5.134,-0.116,0.728,-0.557,1.160,1.129,-0.336,80.000,5027.000,1.000
5.186,9.019,9.775,5.940,6.887,9.893,1.563,3.623,-0.116,0.729,-0.561,1.160,1.099,-0.397,80.000,5028.000,1.000
5.107,8.699,8.875,3.984,5.193,8.132,0.277,2.135,-0.116,0.729,-0.558,1.190,0.977,-0.336,80.000,5029.000,1.000
6.529,9.042,9.316,2.508,3.385,6.311,-0.883,0.812,-0.118,0.730,-0.558,1.160,1.007,-0.244,80.000,5030.000,1.000
8.694,9.896,10.859,1.430,2.081,5.269,-1.462,-0.179,-0.118,0.729,-0.558,1.068,1.038,-0.305,80.000,5031.000,1.000
10.510,10.750,12.662,0.604,1.741,5.398,-1.246,-0.774,-0.116,0.729,-0.557,1.068,1.038,-0.244,80.000,5032.000,1.000
11.372,11.183,13.873,0.098,2.543,6.523,-0.278,-0.918,-0.115,0.731,-0.559,1.129,0.916,-0.092,80.000,5033.000,1.000
11.191,10.982,13.933,0.057,4.318,8.005,1.319,-0.452,-0.117,0.730,-0.557,1.068,0.854,-0.183,80.000,5034.000,1.000
9.861,9.815,12.470,0.385,6.429,8.896,3.250,0.699,-0.118,0.729,-0.557,1.038,0.916,-0.122,80.000,5035.000,1.000
7.170,7.180,9.284,0.691,7.901,8.294,4.905,2.297,-0.116,0.731,-0.557,0.977,1.038,-0.092,80.000,5036.000,1.000
3.313,2.943,4.665,0.643,8.036,5.917,5.689,3.958,-0.116,0.732,-0.559,1.007,0.946,0.000,80.000,5037.000,1.000
-1.005,-2.271,-0.489,0.245,6.848,2.298,5.451,5.395,-0.115,0.732,-0.560,1.068,0.946,-0.031,80.000,5038.000,1.000
-5.136,-7.392,-5.193,-0.421,4.742,-1.711,4.411,6.267,-0.116,0.728,-0.563,1.099,0.916,0.031,80.000,5039.000,1.000
-8.731,-11.407,-8.881,-1.457,2.124,-5.488,2.867,6.120,-0.117,0.729,-0.558,1.129,0.977,0.000,80.000,5040.000,1.000
-11.369,-13.591,-11.305,-2.847,-0.510,-8.682,1.147,4.819,-0.115,0.728,-0.560,1.068,0.916,0.031,80.000,5041.000,1.000
-12.533,-13.703,-12.369,-4.230,-2.547,-11.046,-0.424,2.810,-0.115,0.729,-0.559,1.007,0.977,0.061,80.000,5042.000,1.000
-12.159,-12.183,-12.257,-5.260,-3.645,-12.476,-1.713,0.760,-0.115,0.728,-0.558,1.099,0.977,0.000,80.000,5043.000,1.000
-10.758,-9.963,-11.397,-5.929,-3.965,-13.132,-2.795,-0.913,-0.113,0.726,-0.558,1.160,1.129,0.031,80.000,5044.000,1.000
-8.869,-7.883,-10.102,-6.416,-3.978,-13.385,-3.776,-2.166,-0.113,0.728,-0.558,1.099,1.068,0.000,80.000,5045.000,1.000
-6.798,-6.347,-8.419,-6.854,-4.161,-13.638,-4.748,-3.250,-0.113,0.727,-0.558,1.190,1.068,-0.153,80.000,5046.000,1.000
-4.919,-5.475,-6.394,-7.285,-4.870,-14.172,-5.884,-4.559,-0.113,0.727,-0.556,1.129,1.038,-0.183,80.000,5047.000,1.000
-3.633,-5.339,-4.265,-7.589,-6.221,-15.009,-7.345,-6.349,-0.110,0.728,-0.560,1.251,1.160,-0.122,80.000,5048.000,1.000
-2.888,-5.944,-2.347,-7.612,-7.986,-15.806,-9.014,-8.483,-0.112,0.728,-0.560,1.221,1.251,-0.122,80.000,5049.000,1.000
-2.224,-7.203,-0.903,-7.575,-9.736,-16.057,-10.511,-10.531,-0.111,0.728,-0.557,1.190,1.251,-0.244,80.000,5050.000,1.000
-1.431,-8.917,-0.058,-8.096,-11.102,-15.397,-11.445,-12.113,-0.114,0.728,-0.557,1.190,1.373,-0.244,80.000,5051.000,1.000
-0.747,-10.614,0.348,-9.584,-11.809,-13.682,-11.512,-13.087,-0.115,0.728,-0.556,1.221,1.251,-0.305,80.000,5052.000,1.000
-0.339,-11.548,0.703,-11.925,-11.632,-11.065,-10.533,-13.510,-0.114,0.727,-0.557,1.282,1.434,-0.305,80.000,5053.000,1.000
-0.033,-11.131,1.279,-14.718,-10.544,-8.172,-8.634,-13.513,-0.114,0.728,-0.559,1.129,1.404,-0.458,80.000,5054.000,1.000
0.267,-9.383,1.975,-17.505,-8.787,-5.895,-6.238,-13.161,-0.114,0.729,-0.560,1.129,1.526,-0.427,80.000,5055.000,1.000
0.360,-6.877,2.507,-19.746,-6.667,-4.794,-3.780,-12.414,-0.116,0.729,-0.561,1.190,1.526,-0.427,80.000,5056.000,1.000
0.263,-4.211,2.890,-20.651,-4.276,-4.725,-1.478,-11.176,-0.114,0.728,-0.561,1.312,1.556,-0.458,80.000,5057.000,1.000
0.576,-1.645,3.629,-19.249,-1.494,-5.033,0.572,-9.395,-0.115,0.728,-0.560,1.251,1.617,-0.427,80.000,5058.000,1.000
1.943,0.699,5.255,-14.976,1.686,-5.080,2.186,-7.197,-0.115,0.729,-0.558,1.190,1.587,-0.427,80.000,5059.000,1.000
4.328,2.537,7.739,-8.242,4.916,-4.634,3.034,-4.903,-0.113,0.729,-0.559,1.312,1.495,-0.488,80.000,5060.000,1.000
7.083,3.559,10.506,-0.291,7.604,-3.874,2.825,-2.900,-0.115,0.729,-0.558,1.312,1.526,-0.458,80.000,5061.000,1.000
9.559,3.735,12.863,7.418,9.253,-3.212,1.563,-1.491,-0.115,0.728,-0.560,1.251,1.526,-0.488,80.000,5062.000,1.000
11.334,3.274,14.268,13.673,9.745,-3.110,-0.324,-0.714,-0.115,0.728,-0.559,1.251,1.495,-0.488,80.000,5063.000,1.000
12.142,2.371,14.478,17.754,9.363,-3.883,-2.107,-0.220,-0.115,0.728,-0.557,1.282,1.526,-0.488,80.000,5064.000,1.000
11.995,1.185,13.693,19.559,8.556,-5.471,-3.136,0.543,-0.115,0.730,-0.559,1.251,1.526,-0.397,80.000,5065.000,1.000
11.346,-0.078,12.458,19.492,7.667,-7.382,-3.222,1.860,-0.115,0.729,-0.559,1.190,1.617,-0.397,80.000,5066.000,1.000
10.825,-1.152,11.311,18.118,6.854,-8.940,-2.701,3.443,-0.114,0.728,-0.555,1.190,1.526,-0.397,80.000,5067.000,1.000
10.703,-1.810,10.498,15.873,6.153,-9.700,-2.126,4.660,-0.113,0.728,-0.556,1.160,1.526,-0.336,80.000,5068.000,1.000
10.717,-1.971,9.933,13.106,5.570,-9.665,-1.898,5.087,-0.115,0.727,-0.557,1.160,1.434,-0.214,80.000,5069.000,1.000
10.509,-1.690,9.453,10.349,5.176,-9.047,-2.076,4.799,-0.117,0.728,-0.559,1.190,1.343,-0.275,80.000,5070.000,1.000
10.026,-1.051,9.035,8.243,5.095,-7.912,-2.404,4.113,-0.118,0.729,-0.563,1.312,1.465,-0.214,80.000,5071.000,1.000
9.470,-0.118,8.755,6.993,5.388,-6.192,-2.508,3.211,-0.116,0.729,-0.559,1.282,1.343,-0.153,80.000,5072.000,1.000
9.246,1.078,8.704,6.203,5.993,-3.915,-2.105,2.138,-0.117,0.727,-0.562,1.312,1.190,-0.092,80.000,5073.000,1.000
9.937,2.460,8.994,5.376,6.707,-1.390,-1.173,0.931,-0.115,0.728,-0.562,1.373,1.190,-0.092,80.000,5074.000,1.000
11.875,3.764,9.664,4.282,7.137,0.834,-0.093,-0.522,-0.115,0.729,-0.559,1.312,1.373,-0.122,80.000,5075.000,1.000
14.666,4.563,10.541,2.869,6.786,2.242,0.478,-2.560,-0.116,0.729,-0.561,1.221,1.251,-0.031,80.000,5076.000,1.000
17.333,4.554,11.256,1.126,5.397,2.624,0.030,-5.352,-0.114,0.728,-0.559,1.343,1.190,0.000,80.000,5077.000,1.000
19.015,3.855,11.474,-0.865,3.279,2.137,-1.397,-8.473,-0.115,0.730,-0.559,1.282,1.129,-0.092,80.000,5078.000,1.000
19.384,2.912,11.050,-2.842,1.161,1.136,-3.154,-11.024,-0.115,0.729,-0.557,1.343,1.099,-0.061,80.000,5079.000,1.000
18.370,2.014,9.901,-4.561,-0.405,-0.147,-4.454,-12.299,-0.116,0.726,-0.559,1.312,1.068,-0.031,80.000,5080.000,1.000
15.893,1.013,7.891,-6.100,-1.489,-1.790,-5.007,-12.323,-0.115,0.727,-0.558,1.343,1.068,-0.031,80.000,5081.000,1.000
12.211,-0.361,5.067,-7.669,-2.510,-3.966,-5.121,-11.709,-0.115,0.728,-0.560,1.373,1.129,0.061,80.000,5082.000,1.000
8.241,-2.003,1.936,-9.126,-3.596,-6.556,-5.235,-11.094,-0.115,0.729,-0.561,1.312,1.038,0.061,80.000,5083.000,1.000
5.107,-3.398,-0.692,-9.902,-4.361,-9.085,-5.497,-10.743,-0.115,0.728,-0.561,1.312,1.038,0.061,80.000,5084.000,1.000
3.292,-4.093,-2.243,-9.409,-4.317,-11.056,-5.821,-10.583,-0.115,0.728,-0.561,1.404,0.946,0.031,80.000,5085.000,1.000
2.442,-4.078,-2.737,-7.492,-3.375,-12.255,-6.100,-10.457,-0.115,0.728,-0.562,1.434,1.007,-0.061,80.000,5086.000,1.000
1.955,-3.631,-2.630,-4.574,-1.863,-12.684,-6.217,-10.193,-0.115,0.727,-0.561,1.343,1.007,-0.061,80.000,5087.000,1.000
1.484,-3.010,-2.464,-1.427,-0.176,-12.311,-5.953,-9.540,-0.113,0.727,-0.561,1.221,1.007,0.000,80.000,5088.000,1.000
0.815,-2.444,-2.685,1.207,1.441,-11.036,-5.049,-8.282,-0.114,0.726,-0.561,1.312,0.854,-0.092,80.000,5089.000,1.000
-0.172,-2.176,-3.468,2.985,2.912,-8.802,-3.361,-6.389,-0.113,0.728,-0.560,1.465,0.885,-0.183,80.000,5090.000,1.000
-1.130,-2.271,-4.426,4.270,4.386,-5.700,-0.900,-3.914,-0.114,0.727,-0.558,1.404,0.916,-0.153,80.000,5091.000,1.000
-1.285,-2.574,-4.663,5.958,6.153,-2.104,2.144,-0.877,-0.113,0.727,-0.558,1.312,0.854,-0.214,80.000,5092.000,1.000
-0.165,-2.986,-3.437,8.729,8.264,1.275,5.326,2.602,-0.114,0.728,-0.560,1.312,0.854,-0.214,80.000,5093.000,1.000
1.947,-3.573,-0.765,12.459,10.280,3.668,7.966,6.142,-0.114,0.727,-0.560,1.373,0.824,-0.183,80.000,5094.000,1.000
4.413,-4.302,2.670,16.296,11.462,4.654,9.359,9.062,-0.112,0.729,-0.560,1.312,0.916,-0.183,80.000,5095.000,1.000
6.736,-4.829,6.022,19.115,11.208,4.298,9.051,10.533,-0.112,0.728,-0.558,1.282,0.854,-0.275,80.000,5096.000,1.000
8.552,-4.675,8.646,20.003,9.402,3.001,7.068,10.021,-0.114,0.729,-0.561,1.282,0.916,-0.244,80.000,5097.000,1.000
9.483,-3.587,10.166,18.611,6.482,1.322,3.976,7.731,-0.112,0.730,-0.560,1.190,0.885,-0.336,80.000,5098.000,1.000
9.324,-1.750,10.419,15.259,3.194,-0.194,0.679,4.595,-0.113,0.728,-0.558,1.312,0.885,-0.305,80.000,5099.000,1.000
8.195,0.289,9.388,10.793,0.243,-1.179,-1.916,1.755,-0.113,0.729,-0.558,1.282,0.885,-0.366,80.000,5100.000,1.000
6.329,1.819,7.198,6.294,-1.969,-1.556,-3.221,-0.027,-0.113,0.729,-0.559,1.221,0.854,-0.336,80.000,5101.000,1.000
3.886,2.239,4.190,2.784,-3.394,-1.568,-3.191,-0.589,-0.114,0.731,-0.557,1.190,0.793,-0.336,80.000,5102.000,1.000
1.144,1.389,0.918,0.902,-4.137,-1.635,-2.267,-0.212,-0.114,0.727,-0.557,1.190,0.824,-0.336,80.000,5103.000,1.000
-1.293,-0.280,-1.984,0.611,-4.198,-2.038,-1.019,0.642,-0.114,0.728,-0.560,1.099,0.824,-0.366,80.000,5104.000,1.000
-2.705,-1.886,-3.936,1.337,-3.369,-2.694,0.253,1.579,-0.115,0.729,-0.560,1.160,0.946,-0.397,80.000,5105.000,1.000
-2.558,-2.528,-4.458,2.474,-1.342,-3.161,1.605,2.445,-0.114,0.729,-0.555,1.099,0.824,-0.397,80.000,5106.000,1.000
-0.467,-1.589,-3.194,3.749,2.095,-2.775,3.311,3.381,-0.114,0.732,-0.557,1.099,0.854,-0.397,80.000,5107.000,1.000
3.905,1.164,0.019,5.236,6.903,-0.856,5.674,4.656,-0.114,0.730,-0.559,0.977,0.854,-0.427,80.000,5108.000,1.000
10.519,5.487,4.953,7.056,12.615,2.869,8.724,6.341,-0.115,0.729,-0.558,0.977,0.824,-0.397,80.000,5109.000,1.000
18.477,10.541,10.800,9.083,18.267,7.816,11.951,8.131,-0.114,0.730,-0.558,0.977,0.854,-0.427,80.000,5110.000,1.000
26.347,15.141,16.369,11.003,22.706,12.649,14.463,9.526,-0.115,0.728,-0.561,0.916,0.793,-0.397,80.000,5111.000,1.000
33.210,18.397,20.722,12.646,25.178,16.050,15.596,10.236,-0.114,0.730,-0.559,0.885,0.793,-0.397,80.000,5112.000,1.000
39.140,20.212,23.665,14.214,25.703,17.465,15.384,10.429,-0.112,0.731,-0.560,0.824,0.824,-0.275,80.000,5113.000,1.000
44.593,21.114,25.598,16.082,24.862,17.185,14.406,10.544,-0.113,0.730,-0.560,0.854,0.793,-0.244,80.000,5114.000,1.000
49.676,21.583,26.956,18.332,23.256,15.867,13.253,10.833,-0.114,0.729,-0.559,0.793,0.854,-0.214,80.000,5115.000,1.000
54.121,21.632,27.891,20.622,21.226,14.079,12.220,11.199,-0.114,0.729,-0.559,0.885,0.916,-0.153,80.000,5116.000,1.000
57.577,21.050,28.356,22.482,18.936,12.124,11.327,11.413,-0.115,0.729,-0.555,0.977,0.977,-0.183,80.000,5117.000,1.000
59.738,19.825,28.311,23.571,16.447,9.983,10.393,11.297,-0.112,0.728,-0.554,0.946,0.946,-0.214,80.000,5118.000,1.000
60.501,18.292,27.825,23.767,13.736,7.368,9.103,10.692,-0.113,0.729,-0.557,0.946,0.916,-0.214,80.000,5119.000,1.000
60.097,16.926,27.049,23.233,10.843,4.032,7.243,9.567,-0.114,0.729,-0.556,0.977,0.885,-0.244,80.000,5120.000,1.000
58.856,15.959,26.096,22.364,8.106,0.104,5.002,8.238,-0.113,0.729,-0.558,1.099,0.854,-0.336,80.000,5121.000,1.000
56.952,15.290,25.089,21.630,6.194,-3.830,3.003,7.325,-0.113,0.729,-0.556,1.007,0.916,-0.336,80.000,5122.000,1.000
54.582,14.819,24.351,21.493,5.754,-6.965,1.884,7.350,-0.113,0.728,-0.554,1.007,0.885,-0.397,80.000,5123.000,1.000
52.187,14.679,24.337,22.306,6.955,-8.662,1.841,8.403,-0.114,0.724,-0.558,1.007,0.824,-0.458,80.000,5124.000,1.000
50.180,15.007,25.179,24.111,9.399,-8.669,2.671,10.211,-0.115,0.724,-0.556,1.160,0.885,-0.427,80.000,5125.000,1.000
48.486,15.648,26.419,26.538,12.409,-7.140,4.134,12.391,-0.114,0.723,-0.556,1.221,0.946,-0.519,80.000,5126.000,1.000
46.565,16.165,27.276,28.916,15.286,-4.617,6.013,14.524,-0.115,0.721,-0.557,1.343,0.824,-0.519,80.000,5127.000,1.000
43.940,16.117,27.151,30.519,17.445,-1.911,7.910,16.188,-0.115,0.721,-0.560,1.526,0.793,-0.488,80.000,5128.000,1.000
40.600,15.312,25.917,30.931,18.553,0.216,9.274,17.102,-0.113,0.722,-0.562,1.617,0.854,-0.610,80.000,5129.000,1.000
36.743,13.724,23.732,30.103,18.471,1.283,9.629,17.160,-0.114,0.722,-0.561,1.770,0.824,-0.549,80.000,5130.000,1.000
32.274,11.226,20.637,28.047,17.016,1.042,8.698,16.281,-0.115,0.722,-0.561,1.770,0.854,-0.610,80.000,5131.000,1.000
26.970,7.634,16.583,24.784,13.993,-0.565,6.460,14.417,-0.117,0.723,-0.560,1.923,0.793,-0.641,80.000,5132.000,1.000
21.094,3.124,11.873,20.686,9.531,-3.290,3.205,11.772,-0.115,0.723,-0.557,1.892,0.793,-0.519,80.000,5133.000,1.000
15.387,-1.667,7.253,16.462,4.157,-6.632,-0.532,8.788,-0.116,0.722,-0.560,2.014,0.824,-0.641,80.000,5134.000,1.000
10.454,-6.026,3.380,12.619,-1.439,-10.113,-4.136,5.827,-0.116,0.725,-0.559,2.106,0.824,-0.580,80.000,5135.000,1.000
6.531,-9.439,0.422,9.187,-6.564,-13.318,-7.065,2.966,-0.117,0.726,-0.560,2.167,0.763,-0.610,80.000,5136.000,1.000
3.756,-11.555,-1.810,6.050,-10.548,-15.704,-8.955,0.094,-0.116,0.729,-0.562,2.136,0.763,-0.641,80.000,5137.000,1.000
2.186,-12.191,-3.500,3.319,-12.807,-16.665,-9.607,-2.786,-0.114,0.729,-0.561,2.136,0.732,-0.549,80.000,5138.000,1.000
1.678,-11.416,-4.595,1.344,-12.934,-15.840,-8.884,-5.270,-0.115,0.733,-0.559,2.136,0.671,-0.641,80.000,5139.000,1.000
2.181,-9.548,-4.802,0.566,-10.897,-13.388,-6.863,-6.657,-0.117,0.735,-0.562,1.984,0.763,-0.549,80.000,5140.000,1.000
4.015,-7.080,-3.779,1.347,-7.297,-10.081,-4.108,-6.494,-0.118,0.735,-0.561,1.862,0.610,-0.519,80.000,5141.000,1.000
7.497,-4.537,-1.391,3.745,-3.216,-6.999,-1.499,-4.972,-0.119,0.736,-0.562,1.770,0.610,-0.519,80.000,5142.000,1.000
12.294,-2.229,2.148,7.322,0.403,-4.812,0.346,-2.706,-0.118,0.734,-0.562,1.740,0.549,-0.397,80.000,5143.000,1.000
17.475,-0.070,6.339,11.340,3.221,-3.341,1.377,-0.191,-0.119,0.732,-0.562,1.678,0.427,-0.427,80.000,5144.000,1.000
22.205,2.360,10.664,15.250,5.447,-1.905,1.944,2.464,-0.120,0.732,-0.561,1.678,0.458,-0.336,80.000,5145.000,1.000
26.070,5.383,14.711,18.757,7.433,-0.084,2.504,5.317,-0.118,0.732,-0.562,1.556,0.366,-0.305,80.000,5146.000,1.000
28.742,8.702,18.065,21.483,9.348,1.883,3.448,8.242,-0.116,0.732,-0.559,1.495,0.397,-0.336,80.000,5147.000,1.000
29.799,11.380,20.215,22.908,11.151,3.368,5.011,10.911,-0.116,0.731,-0.558,1.404,0.458,-0.214,80.000,5148.000,1.000
29.076,12.463,20.772,22.750,12.703,3.859,7.192,13.036,-0.117,0.730,-0.560,1.343,0.427,-0.244,80.000,5149.000,1.000
26.967,11.659,19.793,21.254,13.849,3.225,9.763,14.529,-0.116,0.730,-0.557,1.282,0.427,-0.183,80.000,5150.000,1.000
24.179,9.514,17.813,19.054,14.473,1.749,12.404,15.470,-0.116,0.730,-0.562,1.190,0.427,-0.183,80.000,5151.000,1.000
21.254,7.025,15.497,16.779,14.553,0.022,14.757,15.902,-0.117,0.727,-0.559,1.190,0.488,0.000,80.000,5152.000,1.000
18.471,5.075,13.253,14.724,14.087,-1.313,16.283,15.594,-0.115,0.725,-0.558,1.160,0.488,0.000,80.000,5153.000,1.000
16.083,4.120,11.200,12.853,13.005,-1.870,16.283,14.107,-0.115,0.725,-0.556,1.160,0.427,-0.031,80.000,5154.000,1.000
14.266,4.119,9.357,11.057,11.221,-1.637,14.305,11.162,-0.116,0.726,-0.558,1.068,0.397,-0.031,80.000,5155.000,1.000
12.798,4.641,7.697,9.290,8.773,-0.819,10.588,6.958,-0.115,0.724,-0.557,1.038,0.519,0.000,80.000,5156.000,1.000
11.170,5.147,6.142,7.578,5.876,0.384,6.030,2.207,-0.116,0.723,-0.559,1.129,0.488,-0.061,80.000,5157.000,1.000
8.970,5.217,4.555,5.971,2.722,1.726,1.603,-2.176,-0.115,0.724,-0.559,1.129,0.397,-0.031,80.000,5158.000,1.000
5.906,4.527,2.641,4.395,-0.791,2.661,-2.284,-5.615,-0.116,0.727,-0.561,1.160,0.488,-0.061,80.000,5159.000,1.000
1.856,2.944,0.144,2.628,-4.842,2.540,-5.736,-8.052,-0.115,0.726,-0.556,1.129,0.549,-0.061,80.000,5160.000,1.000
-2.647,0.896,-2.657,0.595,-9.058,1.269,-8.760,-9.538,-0.115,0.727,-0.556,1.160,0.580,-0.122,80.000,5161.000,1.000
-6.360,-0.698,-4.936,-1.420,-12.400,-0.500,-10.972,-9.914,-0.115,0.728,-0.558,1.068,0.580,-0.153,80.000,5162.000,1.000
-8.374,-1.199,-6.088,-3.053,-13.906,-1.954,-11.919,-8.987,-0.116,0.731,-0.557,1.099,0.610,-0.183,80.000,5163.000,1.000
-9.159,-0.866,-6.370,-4.325,-13.397,-2.673,-11.450,-6.893,-0.116,0.728,-0.560,1.068,0.580,-0.244,80.000,5164.000,1.000
-10.276,-0.601,-6.681,-5.665,-11.405,-2.550,-9.717,-4.153,-0.114,0.729,-0.561,0.977,0.580,-0.366,80.000,5165.000,1.000
-13.037,-1.144,-7.768,-7.435,-8.625,-1.549,-7.027,-1.372,-0.115,0.730,-0.560,0.977,0.702,-0.305,80.000,5166.000,1.000
-17.614,-2.594,-9.676,-9.543,-5.591,0.181,-3.768,1.100,-0.116,0.732,-0.557,0.885,0.702,-0.366,80.000,5167.000,1.000
-23.329,-4.649,-11.929,-11.569,-2.762,2.062,-0.384,3.204,-0.116,0.735,-0.560,0.885,0.732,-0.427,80.000,5168.000,1.000
-29.316,-7.041,-14.062,-13.194,-0.608,3.192,2.685,4.926,-0.117,0.732,-0.558,0.732,0.702,-0.427,80.000,5169.000,1.000
-34.715,-9.571,-15.811,-14.367,0.540,2.821,5.078,6.058,-0.114,0.732,-0.560,0.671,0.671,-0.488,80.000,5170.000,1.000
-38.711,-11.951,-16.944,-15.077,0.662,0.762,6.577,6.261,-0.116,0.732,-0.562,0.641,0.763,-0.427,80.000,5171.000,1.000
-40.837,-13.889,-17.168,-15.132,0.038,-2.502,7.187,5.410,-0.115,0.729,-0.559,0.580,0.854,-0.488,80.000,5172.000,1.000
-41.103,-15.198,-16.237,-14.155,-0.880,-5.969,7.204,3.890,-0.115,0.729,-0.556,0.610,0.916,-0.519,80.000,5173.000,1.000
-39.689,-15.693,-14.084,-11.719,-1.604,-8.539,7.104,2.478,-0.115,0.730,-0.555,0.519,0.916,-0.549,80.000,5174.000,1.000
-36.810,-15.156,-10.930,-7.545,-1.798,-9.597,7.195,1.880,-0.115,0.727,-0.557,0.641,1.007,-0.549,80.000,5175.000,1.000
-33.048,-13.604,-7.358,-1.932,-1.491,-9.410,7.204,2.190,-0.115,0.728,-0.559,0.641,1.068,-0.519,80.000,5176.000,1.000
-29.415,-11.443,-4.169,3.950,-1.088,-8.936,6.279,2.690,-0.115,0.727,-0.557,0.671,1.099,-0.488,80.000,5177.000,1.000
-26.606,-9.152,-1.863,8.652,-1.014,-9.081,3.691,2.378,-0.118,0.727,-0.558,0.763,1.099,-0.366,80.000,5178.000,1.000
-24.425,-6.951,-0.306,11.519,-1.341,-10.072,-0.381,0.865,-0.118,0.725,-0.559,0.793,1.221,-0.458,80.000,5179.000,1.000
-22.308,-4.917,1.003,12.962,-1.824,-11.507,-4.880,-1.312,-0.115,0.725,-0.561,0.854,1.221,-0.458,80.000,5180.000,1.000
-20.094,-3.254,2.467,13.780,-2.222,-12.886,-8.655,-3.214,-0.116,0.726,-0.558,0.916,1.129,-0.458,80.000,5181.000,1.000
-18.021,-2.237,4.177,14.481,-2.464,-13.956,-11.097,-4.138,-0.117,0.725,-0.558,1.068,1.129,-0.458,80.000,5182.000,1.000
-16.343,-1.951,5.870,15.144,-2.530,-14.552,-12.074,-3.802,-0.118,0.727,-0.560,1.129,1.221,-0.458,80.000,5183.000,1.000
-15.294,-2.185,7.076,15.618,-2.276,-14.327,-11.532,-2.201,-0.119,0.727,-0.559,1.190,1.129,-0.397,80.000,5184.000,1.000
-15.134,-2.572,7.480,15.785,-1.472,-12.828,-9.412,0.525,-0.119,0.727,-0.559,1.221,1.068,-0.336,80.000,5185.000,1.000
-15.894,-2.782,7.178,15.643,-0.068,-9.839,-5.962,4.002,-0.121,0.724,-0.558,1.343,1.099,-0.336,80.000,5186.000,1.000
-17.199,-2.659,6.512,15.085,1.613,-5.530,-1.954,7.439,-0.120,0.726,-0.557,1.434,1.160,-0.214,80.000,5187.000,1.000
-18.577,-2.248,5.755,13.754,3.029,-0.254,1.660,9.783,-0.119,0.725,-0.555,1.465,1.160,-0.214,80.000,5188.000,1.000
-19.894,-1.774,4.903,11.240,3.742,5.650,4.295,10.212,-0.118,0.725,-0.559,1.648,1.068,-0.183,80.000,5189.000,1.000
-21.360,-1.553,3.666,7.318,3.524,11.701,5.930,8.508,-0.117,0.727,-0.561,1.709,1.129,-0.183,80.000,5190.000,1.000
-23.047,-1.711,1.806,2.198,2.425,17.158,7.024,5.230,-0.119,0.726,-0.560,1.770,1.190,-0.122,80.000,5191.000,1.000
-24.506,-1.919,-0.348,-3.248,0.967,21.364,8.435,1.692,-0.120,0.726,-0.564,1.862,1.160,-0.092,80.000,5192.000,1.000
-25.001,-1.650,-1.953,-7.769,0.044,24.036,11.001,-0.590,-0.117,0.725,-0.564,1.923,1.160,-0.061,80.000,5193.000,1.000
-24.053,-0.702,-2.294,-10.518,0.302,25.156,14.794,-0.836,-0.118,0.726,-0.562,2.075,1.099,-0.031,80.000,5194.000,1.000
-21.630,0.719,-1.238,-11.481,1.634,24.739,18.798,0.460,-0.120,0.727,-0.561,1.984,1.007,0.031,80.000,5195.000,1.000
-18.089,2.294,0.804,-11.209,3.274,22.794,21.434,1.902,-0.118,0.726,-0.562,2.075,1.038,0.122,80.000,5196.000,1.000
-14.172,3.789,3.161,-10.277,4.339,19.417,21.507,2.186,-0.117,0.726,-0.563,2.106,1.099,0.183,80.000,5197.000,1.000
-10.813,5.098,5.211,-8.916,4.333,14.862,18.824,0.944,-0.115,0.725,-0.561,2.075,1.068,0.183,80.000,5198.000,1.000
-8.628,6.277,6.629,-7.054,3.313,9.541,14.194,-1.176,-0.116,0.724,-0.559,2.167,1.068,0.183,80.000,5199.000,1.000
-7.670,7.539,7.394,-4.652,1.771,3.993,9.009,-3.100,-0.117,0.724,-0.562,2.228,1.068,0.214,80.000,5200.000,1.000
-7.795,9.001,7.524,-1.985,0.337,-1.208,4.684,-4.039,-0.118,0.724,-0.560,2.228,1.068,0.336,80.000,5201.000,1.000
-9.042,10.389,6.833,0.427,-0.593,-5.504,2.113,-3.843,-0.115,0.725,-0.561,2.350,1.129,0.305,80.000,5202.000,1.000
-11.445,11.085,5.031,2.106,-1.037,-8.316,1.332,-2.908,-0.114,0.722,-0.562,2.441,1.221,0.336,80.000,5203.000,1.000
-14.728,10.475,1.968,2.764,-1.349,-9.149,1.617,-1.837,-0.114,0.721,-0.562,2.502,1.251,0.305,80.000,5204.000,1.000
-18.379,8.316,-2.184,2.381,-1.897,-7.859,2.010,-1.066,-0.115,0.722,-0.560,2.686,1.312,0.366,80.000,5205.000,1.000
-21.802,4.949,-6.807,1.356,-2.671,-4.724,1.993,-0.612,-0.117,0.721,-0.561,2.625,1.343,0.305,80.000,5206.000,1.000
-24.269,1.306,-10.842,0.528,-3.125,-0.160,1.782,-0.081,-0.116,0.720,-0.565,2.625,1.343,0.275,80.000,5207.000,1.000
-25.006,-1.468,-13.143,0.792,-2.523,5.393,1.989,0.995,-0.116,0.721,-0.564,2.747,1.251,0.275,80.000,5208.000,1.000
-23.735,-2.742,-13.156,2.477,-0.578,11.195,2.984,2.672,-0.117,0.722,-0.563,2.869,1.160,0.183,80.000,5209.000,1.000
-21.101,-2.821,-11.362,5.069,2.187,16.138,4.572,4.448,-0.117,0.723,-0.563,2.808,1.190,0.061,80.000,5210.000,1.000
-18.238,-2.563,-8.953,7.571,4.738,19.229,6.196,5.634,-0.117,0.726,-0.563,2.716,1.068,0.031,80.000,5211.000,1.000
-15.935,-2.698,-7.067,9.083,6.178,20.082,7.376,5.868,-0.117,0.726,-0.563,2.747,1.068,0.061,80.000,5212.000,1.000
-14.435,-3.552,-6.332,9.075,6.149,18.963,7.924,5.236,-0.118,0.728,-0.563,2.747,1.038,0.031,80.000,5213.000,1.000
-13.802,-5.104,-6.796,7.538,4.790,16.530,7.845,4.011,-0.118,0.727,-0.563,2.655,1.099,0.122,80.000,5214.000,1.000
-14.011,-6.990,-7.954,5.135,2.601,13.579,7.238,2.465,-0.117,0.726,-0.565,2.594,1.099,0.122,80.000,5215.000,1.000
-14.696,-8.547,-8.963,2.958,0.349,10.923,6.392,0.896,-0.116,0.727,-0.562,2.563,1.129,0.092,80.000,5216.000,1.000
-15.282,-9.093,-9.155,1.834,-1.219,9.276,5.771,-0.377,-0.115,0.729,-0.562,2.441,1.221,0.092,80.000,5217.000,1.000
-15.504,-8.325,-8.491,1.822,-1.768,9.042,5.702,-1.193,-0.115,0.729,-0.565,2.350,1.221,0.061,80.000,5218.000,1.000
-15.504,-6.418,-7.371,2.470,-1.406,10.105,6.151,-1.526,-0.115,0.729,-0.569,2.228,1.190,0.031,80.000,5219.000,1.000
-15.250,-3.642,-5.937,3.532,-0.297,11.880,6.921,-1.206,-0.115,0.727,-0.566,2.167,1.251,0.092,80.000,5220.000,1.000
-14.172,-0.005,-3.718,5.232,1.603,13.637,7.910,0.020,-0.115,0.729,-0.566,1.984,1.190,0.183,80.000,5221.000,1.000
-11.666,4.536,-0.162,7.773,4.284,14.784,8.976,1.952,-0.115,0.731,-0.569,1.923,1.312,0.244,80.000,5222.000,1.000
-7.761,9.597,4.595,10.852,7.291,14.919,9.762,3.767,-0.116,0.729,-0.569,1.740,1.312,0.122,80.000,5223.000,1.000
-3.078,14.311,9.619,13.788,9.840,13.894,9.970,4.654,-0.116,0.729,-0.569,1.678,1.373,0.183,80.000,5224.000,1.000
1.614,17.749,13.774,15.983,11.388,11.909,9.665,4.519,-0.115,0.729,-0.568,1.587,1.343,0.305,80.000,5225.000,1.000
5.575,19.333,16.373,17.167,11.966,9.487,9.109,4.022,-0.115,0.728,-0.564,1.434,1.190,0.366,80.000,5226.000,1.000
8.204,19.106,17.480,17.474,12.090,7.366,8.508,4.154,-0.116,0.728,-0.565,1.404,1.312,0.275,80.000,5227.000,1.000
9.385,17.774,17.776,17.485,12.442,6.256,8.063,5.772,-0.116,0.729,-0.566,1.282,1.282,0.244,80.000,5228.000,1.000
9.462,16.238,17.973,17.859,13.403,6.420,7.937,9.105,-0.116,0.727,-0.564,1.221,1.404,0.183,80.000,5229.000,1.000
8.678,14.894,18.160,18.731,14.723,7.427,8.083,13.523,-0.114,0.724,-0.566,1.160,1.404,0.122,80.000,5230.000,1.000
6.898,13.446,17.697,19.592,15.640,8.393,8.251,17.928,-0.115,0.725,-0.566,1.129,1.251,0.061,80.000,5231.000,1.000
4.010,11.279,15.730,19.652,15.295,8.456,8.110,21.299,-0.115,0.723,-0.568,0.946,1.312,0.031,80.000,5232.000,1.000
0.404,8.017,11.968,18.354,13.228,7.222,7.348,22.939,-0.116,0.723,-0.567,0.977,1.312,-0.092,80.000,5233.000,1.000
-3.063,3.937,7.113,15.815,9.776,5.074,5.925,22.690,-0.115,0.726,-0.566,0.916,1.373,-0.122,80.000,5234.000,1.000
-5.622,-0.035,2.484,12.820,5.984,3.055,4.253,21.077,-0.114,0.726,-0.563,0.824,1.312,-0.183,80.000,5235.000,1.000
-7.137,-2.889,-0.900,10.181,2.942,2.188,2.919,18.942,-0.115,0.724,-0.565,0.732,1.404,-0.183,80.000,5236.000,1.000
-8.055,-4.171,-2.876,8.117,1.198,2.844,2.249,16.884,-0.115,0.725,-0.563,0.793,1.434,-0.183,80.000,5237.000,1.000
-8.840,-4.070,-3.911,6.380,0.757,4.689,2.277,15.150,-0.114,0.723,-0.565,0.671,1.373,-0.214,80.000,5238.000,1.000
-9.564,-3.075,-4.539,4.843,1.374,7.074,2.894,13.842,-0.114,0.724,-0.565,0.732,1.495,-0.305,80.000,5239.000,1.000
-9.942,-1.655,-5.024,3.817,2.702,9.412,3.834,12.975,-0.116,0.723,-0.566,0.702,1.495,-0.275,80.000,5240.000,1.000
-9.545,-0.058,-5.253,3.852,4.373,11.291,4.708,12.449,-0.112,0.724,-0.562,0.671,1.465,-0.397,80.000,5241.000,1.000
-8.149,1.639,-4.862,5.274,6.089,12.481,5.222,12.120,-0.113,0.724,-0.561,0.671,1.495,-0.366,80.000,5242.000,1.000
-6.142,3.234,-3.677,7.771,7.599,12.984,5.378,11.855,-0.113,0.724,-0.563,0.702,1.495,-0.427,80.000,5243.000,1.000
-4.486,4.225,-2.174,10.419,8.606,13.005,5.406,11.524,-0.115,0.725,-0.562,0.671,1.495,-0.458,80.000,5244.000,1.000
-3.968,4.101,-1.276,12.279,8.868,12.714,5.534,11.045,-0.116,0.724,-0.561,0.610,1.495,-0.336,80.000,5245.000,1.000
-4.588,2.790,-1.608,12.954,8.316,12.014,5.688,10.408,-0.115,0.724,-0.563,0.702,1.404,-0.549,80.000,5246.000,1.000
-5.841,0.658,-3.120,12.579,6.910,10.562,5.337,9.544,-0.116,0.727,-0.566,0.763,1.465,-0.519,80.000,5247.000,1.000
-7.260,-1.843,-5.347,11.517,4.573,8.023,3.831,8.281,-0.115,0.724,-0.564,0.671,1.495,-0.488,80.000,5248.000,1.000
-8.425,-4.327,-7.692,10.274,1.451,4.346,1.052,6.622,-0.115,0.724,-0.562,0.732,1.404,-0.427,80.000,5249.000,1.000
-8.793,-6.370,-9.465,9.487,-1.880,-0.049,-2.342,4.973,-0.115,0.725,-0.565,0.732,1.434,-0.458,80.000,5250.000,1.000
-7.948,-7.467,-9.955,9.690,-4.635,-4.285,-5.407,3.927,-0.116,0.726,-0.563,0.763,1.404,-0.427,80.000,5251.000,1.000
-5.910,-7.248,-8.700,11.014,-6.213,-7.385,-7.551,3.768,-0.117,0.724,-0.562,0.793,1.434,-0.397,80.000,5252.000,1.000
-3.038,-5.739,-5.797,13.069,-6.446,-8.769,-8.783,4.183,-0.116,0.723,-0.562,0.916,1.434,-0.519,80.000,5253.000,1.000
0.233,-3.434,-1.937,15.072,-5.602,-8.454,-9.522,4.441,-0.116,0.724,-0.561,0.916,1.373,-0.336,80.000,5254.000,1.000
3.512,-1.024,1.972,16.260,-4.168,-6.836,-10.181,3.982,-0.118,0.725,-0.561,0.885,1.312,-0.305,80.000,5255.000,1.000
6.593,1.060,5.380,16.366,-2.511,-4.384,-10.759,2.894,-0.117,0.723,-0.562,1.038,1.343,-0.275,80.000,5256.000,1.000
9.522,2.804,8.265,15.673,-0.789,-1.545,-10.877,1.769,-0.116,0.723,-0.558,1.038,1.282,-0.244,80.000,5257.000,1.000
12.336,4.322,10.682,14.622,0.862,1.232,-10.193,1.144,-0.116,0.722,-0.561,1.007,1.221,-0.275,80.000,5258.000,1.000
14.640,5.522,12.309,13.382,2.182,3.555,-8.741,1.133,-0.119,0.723,-0.564,1.038,1.190,-0.153,80.000,5259.000,1.000
15.571,6.079,12.508,11.698,2.836,5.186,-6.953,1.373,-0.119,0.724,-0.564,1.160,1.282,-0.061,80.000,5260.000,1.000
14.404,5.704,10.821,9.173,2.517,6.107,-5.462,1.181,-0.117,0.723,-0.564,1.251,1.160,-0.092,80.000,5261.000,1.000
11.226,4.412,7.367,5.761,1.107,6.575,-4.791,-0.029,-0.118,0.725,-0.563,1.312,1.221,-0.122,80.000,5262.000,1.000
6.904,2.539,2.857,1.979,-1.131,7.032,-5.027,-2.218,-0.116,0.722,-0.562,1.373,1.221,-0.031,80.000,5263.000,1.000
2.570,0.592,-1.660,-1.335,-3.549,7.828,-5.708,-4.618,-0.117,0.724,-0.563,1.312,1.221,0.000,80.000,5264.000,1.000
-0.723,-0.922,-5.162,-3.512,-5.499,8.891,-6.244,-6.329,-0.116,0.725,-0.559,1.343,1.068,0.031,80.000,5265.000,1.000
-2.234,-1.717,-7.064,-4.404,-6.840,9.693,-6.561,-7.061,-0.116,0.725,-0.563,1.373,1.129,0.031,80.000,5266.000,1.000
-1.866,-1.926,-7.435,-4.311,-7.899,9.632,-7.060,-7.188,-0.115,0.722,-0.564,1.404,1.038,0.092,80.000,5267.000,1.000
-0.274,-1.987,-6.850,-3.629,-8.932,8.525,-7.855,-7.152,-0.115,0.722,-0.565,1.434,1.190,0.153,80.000,5268.000,1.000
1.547,-2.301,-6.070,-2.683,-9.841,6.745,-8.432,-6.984,-0.116,0.723,-0.567,1.434,1.190,0.183,80.000,5269.000,1.000
2.893,-2.997,-5.750,-1.778,-10.413,4.943,-8.218,-6.433,-0.116,0.725,-0.565,1.434,1.160,0.244,80.000,5270.000,1.000
3.503,-4.010,-6.216,-1.161,-10.586,3.674,-7.162,-5.427,-0.116,0.728,-0.566,1.404,1.282,0.183,80.000,5271.000,1.000
3.269,-5.230,-7.403,-0.965,-10.414,3.232,-5.588,-4.289,-0.115,0.726,-0.566,1.343,1.251,0.153,80.000,5272.000,1.000
2.123,-6.500,-9.003,-1.382,-10.029,3.652,-3.857,-3.537,-0.113,0.727,-0.565,1.373,1.312,0.092,80.000,5273.000,1.000
0.314,-7.551,-10.588,-2.682,-9.715,4.700,-2.438,-3.603,-0.115,0.726,-0.563,1.221,1.312,0.092,80.000,5274.000,1.000
-1.384,-7.969,-11.559,-4.761,-9.725,5.960,-1.931,-4.678,-0.116,0.726,-0.564,1.129,1.343,0.000,80.000,5275.000,1.000
-2.035,-7.287,-11.250,-6.877,-9.912,7.127,-2.592,-6.567,-0.114,0.724,-0.565,1.190,1.434,0.000,80.000,5276.000,1.000
-1.222,-5.286,-9.432,-8.141,-9.786,8.184,-4.043,-8.573,-0.115,0.726,-0.566,1.221,1.373,-0.122,80.000,5277.000,1.000
0.766,-2.260,-6.667,-8.123,-9.064,9.228,-5.687,-9.868,-0.115,0.728,-0.564,1.129,1.343,-0.122,80.000,5278.000,1.000
3.297,1.073,-3.898,-6.932,-7.945,10.212,-7.218,-10.153,-0.114,0.727,-0.566,1.129,1.373,-0.122,80.000,5279.000,1.000
5.759,3.975,-1.688,-4.957,-6.754,11.012,-8.471,-9.728,-0.113,0.725,-0.563,1.099,1.312,-0.092,80.000,5280.000,1.000
7.769,6.109,0.125,-2.582,-5.488,11.656,-9.088,-8.877,-0.112,0.726,-0.561,1.007,1.251,-0.183,80.000,5281.000,1.000
9.387,7.636,2.108,0.072,-3.876,12.302,-8.779,-7.583,-0.114,0.724,-0.563,1.068,1.404,-0.153,80.000,5282.000,1.000
11.030,8.910,4.615,3.100,-1.769,13.027,-7.697,-5.828,-0.115,0.725,-0.563,0.854,1.434,-0.275,80.000,5283.000,1.000
12.742,9.966,7.210,6.294,0.533,13.633,-6.324,-3.856,-0.114,0.724,-0.561,0.793,1.495,-0.275,80.000,5284.000,1.000
13.728,10.333,8.751,8.923,2.318,13.650,-5.187,-2.007,-0.114,0.724,-0.564,0.885,1.495,-0.336,80.000,5285.000,1.000
13.048,9.497,8.285,10.299,2.955,12.675,-4.623,-0.377,-0.115,0.725,-0.559,0.854,1.526,-0.427,80.000,5286.000,1.000
10.563,7.408,5.828,10.293,2.391,10.718,-4.559,1.222,-0.114,0.723,-0.561,0.946,1.434,-0.488,80.000,5287.000,1.000
6.888,4.441,2.256,9.265,1.121,8.128,-4.557,3.020,-0.115,0.725,-0.562,0.916,1.495,-0.519,80.000,5288.000,1.000
2.762,1.144,-1.352,7.772,-0.234,5.337,-4.258,5.052,-0.115,0.728,-0.563,0.916,1.404,-0.427,80.000,5289.000,1.000
-1.218,-1.807,-4.292,6.175,-1.302,2.761,-3.682,7.025,-0.114,0.724,-0.561,0.824,1.465,-0.336,80.000,5290.000,1.000
-4.454,-3.685,-6.391,4.416,-1.993,0.796,-2.970,8.416,-0.115,0.724,-0.564,0.763,1.495,-0.366,80.000,5291.000,1.000
-6.351,-3.986,-7.722,2.307,-2.309,-0.229,-2.038,8.860,-0.117,0.725,-0.564,0.763,1.465,-0.336,80.000,5292.000,1.000
-6.693,-2.714,-8.358,-0.139,-2.332,-0.180,-0.793,8.363,-0.117,0.724,-0.562,0.824,1.465,-0.366,80.000,5293.000,1.000
-5.798,-0.360,-8.379,-2.734,-2.258,0.837,0.566,7.084,-0.116,0.726,-0.564,0.793,1.526,-0.275,80.000,5294.000,1.000
-4.128,2.430,-7.897,-5.243,-2.207,2.580,1.711,5.100,-0.116,0.726,-0.563,0.763,1.526,-0.153,80.000,5295.000,1.000
-1.956,5.138,-6.993,-7.412,-2.078,4.799,2.495,2.551,-0.115,0.724,-0.563,0.671,1.434,-0.092,80.000,5296.000,1.000
0.486,7.416,-5.722,-9.013,-1.732,7.270,2.920,-0.173,-0.117,0.724,-0.562,0.732,1.373,-0.153,80.000,5297.000,1.000
2.833,9.053,-4.253,-10.025,-1.307,9.661,2.879,-2.688,-0.116,0.724,-0.563,0.732,1.373,-0.092,80.000,5298.000,1.000
4.747,9.931,-2.960,-10.717,-1.241,11.392,2.070,-5.003,-0.116,0.725,-0.564,0.732,1.465,-0.092,80.000,5299.000,1.000
6.145,9.983,-2.268,-11.423,-1.944,11.706,0.226,-7.391,-0.117,0.726,-0.563,0.671,1.373,-0.031,80.000,5300.000,1.000
7.072,9.166,-2.375,-12.235,-3.472,10.056,-2.622,-9.960,-0.116,0.723,-0.563,0.732,1.404,0.031,80.000,5301.000,1.000
7.535,7.564,-3.140,-12.970,-5.502,6.550,-6.066,-12.503,-0.115,0.724,-0.561,0.671,1.373,0.061,80.000,5302.000,1.000
7.672,5.520,-4.222,-13.433,-7.592,2.023,-9.430,-14.674,-0.114,0.727,-0.561,0.732,1.343,0.031,80.000,5303.000,1.000
7.850,3.493,-5.334,-13.675,-9.495,-2.497,-12.071,-16.148,-0.115,0.725,-0.564,0.702,1.221,0.092,80.000,5304.000,1.000
8.278,1.736,-6.352,-13.887,-11.229,-6.442,-13.689,-16.700,-0.114,0.726,-0.563,0.824,1.282,0.183,80.000,5305.000,1.000
8.750,0.232,-7.227,-14.032,-12.809,-9.796,-14.294,-16.294,-0.113,0.725,-0.562,0.793,1.251,0.183,80.000,5306.000,1.000
8.983,-1.123,-7.858,-13.678,-14.000,-12.646,-13.886,-15.025,-0.113,0.726,-0.558,0.885,1.190,0.122,80.000,5307.000,1.000
8.930,-2.423,-8.192,-12.359,-14.419,-14.854,-12.376,-12.982,-0.114,0.725,-0.562,0.763,1.129,0.122,80.000,5308.000,1.000
8.544,-3.810,-8.418,-10.176,-13.910,-16.157,-9.902,-10.365,-0.113,0.725,-0.564,0.793,1.160,0.122,80.000,5309.000,1.000
7.567,-5.411,-8.902,-7.891,-12.763,-16.424,-7.074,-7.754,-0.114,0.724,-0.566,0.854,1.251,0.061,80.000,5310.000,1.000
5.896,-7.171,-9.824,-6.318,-11.602,-15.835,-4.793,-5.965,-0.114,0.724,-0.569,0.854,1.312,0.122,80.000,5311.000,1.000
3.903,-8.896,-11.042,-5.727,-11.144,-14.874,-3.844,-5.580,-0.113,0.727,-0.563,0.824,1.221,0.153,80.000,5312.000,1.000
2.132,-10.413,-12.278,-5.818,-11.831,-14.035,-4.559,-6.619,-0.114,0.725,-0.567,0.885,1.251,0.092,80.000,5313.000,1.000
0.841,-11.546,-13.246,-6.084,-13.469,-13.385,-6.591,-8.522,-0.113,0.726,-0.560,0.916,1.312,0.031,80.000,5314.000,1.000
0.066,-12.011,-13.630,-6.187,-15.270,-12.514,-9.032,-10.366,-0.113,0.727,-0.562,0.885,1.221,0.031,80.000,5315.000,1.000
-0.084,-11.544,-13.167,-5.999,-16.310,-10.938,-10.879,-11.256,-0.112,0.726,-0.560,0.793,1.373,-0.122,80.000,5316.000,1.000
0.493,-10.168,-11.828,-5.468,-15.973,-8.520,-11.514,-10.753,-0.111,0.725,-0.563,0.763,1.373,-0.122,80.000,5317.000,1.000
1.523,-8.294,-9.924,-4.762,-14.240,-5.589,-10.986,-9.171,-0.113,0.726,-0.565,0.702,1.343,-0.122,80.000,5318.000,1.000
2.366,-6.565,-7.990,-4.485,-11.806,-2.851,-10.045,-7.486,-0.113,0.726,-0.566,0.763,1.343,-0.214,80.000,5319.000,1.000
2.602,-5.569,-6.442,-5.281,-9.794,-1.166,-9.695,-6.745,-0.113,0.727,-0.563,0.793,1.312,-0.275,80.000,5320.000,1.000
2.493,-5.546,-5.248,-7.069,-9.075,-1.217,-10.386,-7.366,-0.115,0.726,-0.563,0.793,1.312,-0.336,80.000,5321.000,1.000
2.697,-6.303,-4.001,-8.944,-9.752,-3.182,-11.611,-8.906,-0.111,0.724,-0.561,0.702,1.312,-0.366,80.000,5322.000,1.000
3.571,-7.475,-2.447,-9.931,-11.275,-6.678,-12.346,-10.386,-0.115,0.725,-0.565,0.763,1.251,-0.336,80.000,5323.000,1.000
4.927,-8.777,-0.798,-9.657,-12.855,-10.872,-11.775,-10.852,-0.114,0.726,-0.562,0.671,1.312,-0.397,80.000,5324.000,1.000
6.304,-9.963,0.548,-8.370,-13.752,-14.629,-9.657,-9.848,-0.113,0.726,-0.562,0.854,1.251,-0.427,80.000,5325.000,1.000
7.074,-10.875,1.218,-6.758,-13.644,-16.968,-6.394,-7.670,-0.114,0.727,-0.558,0.671,1.221,-0.427,80.000,5326.000,1.000
6.494,-11.696,0.740,-5.786,-12.954,-17.698,-2.992,-5.219,-0.113,0.725,-0.562,0.702,1.251,-0.427,80.000,5327.000,1.000
4.276,-12.786,-1.188,-6.174,-12.570,-17.470,-0.689,-3.471,-0.113,0.725,-0.560,0.732,1.221,-0.397,80.000,5328.000,1.000
1.133,-14.153,-4.153,-7.751,-13.073,-17.110,-0.323,-3.025,-0.114,0.726,-0.562,0.671,1.251,-0.488,80.000,5329.000,1.000
-1.622,-15.300,-7.080,-9.561,-14.270,-16.976,-1.871,-3.985,-0.114,0.727,-0.563,0.641,1.251,-0.458,80.000,5330.000,1.000
-3.025,-15.649,-8.976,-10.736,-15.460,-16.947,-4.575,-6.035,-0.113,0.726,-0.564,0.671,1.221,-0.366,80.000,5331.000,1.000
-2.889,-15.041,-9.526,-11.163,-16.096,-16.792,-7.482,-8.592,-0.114,0.727,-0.561,0.702,1.221,-0.305,80.000,5332.000,1.000
-1.534,-13.793,-9.044,-11.230,-16.073,-16.329,-9.870,-10.987,-0.114,0.725,-0.562,0.824,1.312,-0.305,80.000,5333.000,1.000
0.641,-12.278,-7.959,-11.152,-15.403,-15.328,-11.275,-12.633,-0.116,0.725,-0.560,0.824,1.190,-0.336,80.000,5334.000,1.000
3.509,-10.418,-6.347,-10.724,-13.836,-13.476,-11.382,-13.078,-0.117,0.726,-0.563,0.824,1.099,-0.366,80.000,5335.000,1.000
7.414,-7.647,-3.858,-9.465,-10.975,-10.571,-10.049,-12.000,-0.115,0.725,-0.563,0.824,1.038,-0.336,80.000,5336.000,1.000
12.859,-3.514,-0.111,-6.928,-6.754,-6.715,-7.463,-9.330,-0.115,0.725,-0.562,0.793,0.946,-0.366,80.000,5337.000,1.000
19.833,1.746,4.817,-3.148,-1.686,-2.270,-4.174,-5.468,-0.114,0.726,-0.562,0.854,0.916,-0.397,80.000,5338.000,1.000
27.594,7.345,10.401,1.264,3.407,2.278,-0.985,-1.231,-0.114,0.725,-0.558,0.885,0.854,-0.336,80.000,5339.000,1.000
35.199,12.528,16.054,5.645,7.865,6.349,1.215,2.482,-0.113,0.723,-0.558,0.916,0.824,-0.305,80.000,5340.000,1.000
42.087,16.940,21.356,9.689,11.366,9.327,1.749,4.991,-0.114,0.721,-0.559,1.038,0.793,-0.305,80.000,5341.000,1.000
48.014,20.517,26.020,13.287,13.825,10.774,0.539,6.034,-0.115,0.721,-0.561,1.007,0.763,-0.305,80.000,5342.000,1.000
52.597,23.154,29.772,16.176,15.216,10.594,-1.754,5.828,-0.114,0.719,-0.561,1.190,0.824,-0.305,80.000,5343.000,1.000
55.243,24.641,32.244,17.825,15.507,9.082,-4.070,4.854,-0.114,0.720,-0.560,1.251,0.793,-0.275,80.000,5344.000,1.000
55.638,24.995,33.110,17.694,14.822,6.898,-5.449,3.591,-0.113,0.721,-0.560,1.465,0.763,-0.244,80.000,5345.000,1.000
53.967,24.583,32.329,15.670,13.515,4.808,-5.441,2.408,-0.113,0.722,-0.562,1.495,0.885,-0.275,80.000,5346.000,1.000
50.525,23.679,30.079,12.138,11.882,3.156,-4.359,1.490,-0.114,0.724,-0.561,1.556,0.793,-0.275,80.000,5347.000,1.000
45.556,22.118,26.530,7.668,9.906,1.650,-3.063,0.779,-0.114,0.724,-0.562,1.556,0.854,-0.305,80.000,5348.000,1.000
39.638,19.560,21.911,2.759,7.448,-0.248,-2.285,0.092,-0.113,0.723,-0.566,1.678,0.885,-0.397,80.000,5349.000,1.000
33.685,15.911,16.644,-2.216,4.519,-2.773,-2.173,-0.685,-0.114,0.722,-0.566,1.678,0.824,-0.366,80.000,5350.000,1.000
28.314,11.461,11.252,-6.962,1.309,-5.678,-2.417,-1.496,-0.115,0.723,-0.560,1.648,0.916,-0.366,80.000,5351.000,1.000
23.575,6.878,6.285,-11.065,-1.828,-8.379,-2.635,-2.124,-0.115,0.725,-0.560,1.740,0.732,-0.336,80.000,5352.000,1.000
19.372,3.059,2.278,-13.988,-4.425,-10.256,-2.682,-2.397,-0.113,0.726,-0.561,1.740,0.610,-0.336,80.000,5353.000,1.000
15.761,0.703,-0.461,-15.442,-6.108,-11.015,-2.713,-2.502,-0.112,0.730,-0.565,1.770,0.671,-0.336,80.000,5354.000,1.000
12.748,-0.084,-2.100,-15.683,-6.816,-10.835,-3.004,-2.974,-0.114,0.729,-0.566,1.709,0.793,-0.305,80.000,5355.000,1.000
10.071,0.210,-3.217,-15.411,-6.864,-10.220,-3.840,-4.353,-0.115,0.729,-0.565,1.556,0.824,-0.366,80.000,5356.000,1.000
7.408,0.815,-4.386,-15.385,-6.779,-9.698,-5.509,-6.875,-0.117,0.731,-0.561,1.465,0.732,-0.397,80.000,5357.000,1.000
4.686,1.019,-5.772,-16.006,-6.951,-9.516,-8.031,-10.259,-0.117,0.730,-0.564,1.282,0.671,-0.397,80.000,5358.000,1.000
1.982,0.352,-7.229,-17.215,-7.442,-9.644,-10.911,-13.674,-0.116,0.732,-0.565,1.312,0.702,-0.458,80.000,5359.000,1.000
-0.753,-1.393,-8.722,-18.757,-8.163,-10.036,-13.413,-16.159,-0.116,0.730,-0.564,1.251,0.641,-0.488,80.000,5360.000,1.000
-3.625,-4.118,-10.424,-20.372,-9.065,-10.710,-15.069,-17.223,-0.115,0.732,-0.562,1.068,0.580,-0.519,80.000,5361.000,1.000
-6.420,-7.342,-12.335,-21.613,-10.023,-11.579,-15.844,-17.079,-0.115,0.732,-0.564,1.007,0.549,-0.549,80.000,5362.000,1.000
-8.618,-10.245,-14.079,-21.889,-10.780,-12.399,-15.960,-16.382,-0.113,0.729,-0.563,0.793,0.641,-0.549,80.000,5363.000,1.000
-9.877,-11.999,-15.179,-20.990,-11.130,-12.968,-15.681,-15.788,-0.113,0.729,-0.562,0.732,0.702,-0.519,80.000,5364.000,1.000
-10.243,-12.133,-15.356,-19.299,-11.032,-13.239,-15.162,-15.556,-0.114,0.729,-0.561,0.671,0.702,-0.488,80.000,5365.000,1.000
-9.870,-10.714,-14.581,-17.350,-10.493,-13.219,-14.351,-15.401,-0.115,0.727,-0.563,0.641,0.610,-0.519,80.000,5366.000,1.000
-8.999,-8.420,-13.144,-15.479,-9.524,-12.887,-12.984,-14.678,-0.117,0.726,-0.564,0.580,0.702,-0.427,80.000,5367.000,1.000
-8.207,-6.343,-11.658,-13.880,-8.202,-12.226,-10.770,-12.880,-0.115,0.725,-0.559,0.519,0.610,-0.427,80.000,5368.000,1.000
-8.045,-5.333,-10.701,-12.614,-6.672,-11.285,-7.711,-10.053,-0.113,0.724,-0.558,0.580,0.671,-0.397,80.000,5369.000,1.000
-8.389,-5.506,-10.450,-11.492,-5.111,-10.250,-4.226,-6.731,-0.113,0.726,-0.558,0.580,0.763,-0.275,80.000,5370.000,1.000
-8.611,-6.446,-10.758,-10.191,-3.730,-9.392,-0.933,-3.517,-0.115,0.726,-0.564,0.488,0.763,-0.336,80.000,5371.000,1.000
-8.356,-7.697,-11.386,-8.612,-2.703,-8.841,1.666,-0.836,-0.117,0.726,-0.563,0.397,0.732,-0.366,80.000,5372.000,1.000
-7.732,-8.904,-11.994,-7.079,-2.041,-8.435,3.347,1.041,-0.117,0.725,-0.563,0.427,0.824,-0.336,80.000,5373.000,1.000
-6.750,-9.722,-12.046,-6.043,-1.648,-7.957,4.063,1.937,-0.116,0.727,-0.563,0.336,0.854,-0.366,80.000,5374.000,1.000
-5.032,-9.890,-11.044,-5.698,-1.614,-7.533,3.711,1.739,-0.117,0.725,-0.563,0.336,0.793,-0.458,80.000,5375.000,1.000
-2.398,-9.439,-9.019,-6.055,-2.345,-7.621,2.086,0.351,-0.116,0.726,-0.564,0.305,0.763,-0.488,80.000,5376.000,1.000
0.618,-8.656,-6.686,-7.132,-4.183,-8.502,-0.841,-2.259,-0.116,0.727,-0.562,0.183,0.854,-0.458,80.000,5377.000,1.000
3.277,-7.670,-4.893,-8.853,-6.897,-9.874,-4.673,-5.906,-0.116,0.727,-0.560,0.092,0.885,-0.458,80.000,5378.000,1.000
5.386,-6.260,-3.906,-10.888,-9.651,-11.075,-8.686,-10.084,-0.116,0.727,-0.560,0.122,0.824,-0.519,80.000,5379.000,1.000
7.109,-4.263,-3.329,-12.735,-11.457,-11.633,-12.097,-13.962,-0.117,0.726,-0.561,-0.031,0.885,-0.488,80.000,5380.000,1.000
8.339,-2.003,-2.623,-13.945,-11.671,-11.455,-14.257,-16.560,-0.116,0.728,-0.563,-0.031,0.916,-0.549,80.000,5381.000,1.000
8.772,-0.061,-1.567,-14.238,-10.216,-10.602,-14.803,-17.194,-0.117,0.730,-0.562,-0.031,0.854,-0.488,80.000,5382.000,1.000
8.469,1.292,-0.232,-13.456,-7.529,-9.049,-13.858,-15.932,-0.115,0.730,-0.561,-0.092,0.854,-0.458,80.000,5383.000,1.000
7.922,2.204,1.269,-11.529,-4.327,-6.773,-11.985,-13.531,-0.115,0.731,-0.562,-0.092,0.854,-0.488,80.000,5384.000,1.000
7.552,2.800,2.820,-8.586,-1.339,-4.070,-9.818,-10.817,-0.116,0.731,-0.562,-0.183,0.854,-0.580,80.000,5385.000,1.000
7.421,2.850,4.126,-5.061,0.881,-1.705,-7.707,-8.141,-0.116,0.729,-0.562,-0.336,0.854,-0.610,80.000,5386.000,1.000
7.325,2.031,4.721,-1.704,2.154,-0.519,-5.683,-5.370,-0.115,0.727,-0.562,-0.366,0.793,-0.641,80.000,5387.000,1.000
6.934,0.419,4.296,0.619,2.767,-0.789,-3.556,-2.233,-0.116,0.727,-0.561,-0.366,0.885,-0.580,80.000,5388.000,1.000
5.955,-1.412,3.011,1.457,3.279,-1.963,-1.011,1.394,-0.116,0.727,-0.559,-0.336,0.916,-0.580,80.000,5389.000,1.000
4.451,-2.755,1.474,1.147,4.162,-3.037,2.174,5.325,-0.115,0.728,-0.558,-0.366,0.977,-0.549,80.000,5390.000,1.000
2.894,-3.294,0.331,0.428,5.534,-3.255,5.790,8.975,-0.117,0.726,-0.560,-0.336,0.916,-0.580,80.000,5391.000,1.000
1.799,-3.312,-0.198,-0.311,7.107,-2.541,9.135,11.521,-0.117,0.725,-0.558,-0.336,0.946,-0.519,80.000,5392.000,1.000
1.368,-3.385,-0.378,-1.241,8.305,-1.359,11.360,12.296,-0.116,0.726,-0.563,-0.275,0.946,-0.488,80.000,5393.000,1.000
1.517,-3.832,-0.618,-2.651,8.550,-0.295,11.830,11.134,-0.119,0.727,-0.560,-0.275,1.007,-0.549,80.000,5394.000,1.000
2.200,-4.384,-1.056,-4.415,7.644,0.248,10.352,8.467,-0.119,0.729,-0.558,-0.244,1.129,-0.610,80.000,5395.000,1.000
3.616,-4.331,-1.403,-5.926,6.012,0.134,7.328,5.169,-0.119,0.727,-0.558,-0.244,1.129,-0.488,80.000,5396.000,1.000
5.951,-3.099,-1.160,-6.590,4.408,-0.538,3.645,2.102,-0.117,0.725,-0.562,-0.244,1.099,-0.458,80.000,5397.000,1.000
9.056,-0.757,-0.035,-6.340,3.329,-1.558,0.180,-0.338,-0.116,0.726,-0.559,-0.153,1.068,-0.458,80.000,5398.000,1.000
12.562,2.139,1.844,-5.612,2.790,-2.652,-2.595,-2.240,-0.119,0.723,-0.559,0.061,1.038,-0.427,80.000,5399.000,1.000
