EEG 1,EEG 2,EEG 3,EEG 4,EEG 5,EEG 6,EEG 7,EEG 8,Accelerometer X,Accelerometer Y,Accelerometer Z,Gyroscope X,Gyroscope Y,Gyroscope Z,Battery Level,Counter,Validation Indicator
-28.311,-16.707,-15.001,-16.571,-8.888,-5.382,-0.551,-6.963,-0.115,0.761,-0.526,0.427,1.068,-0.275,80.000,13689.000,1.000
-26.678,-14.893,-12.757,-14.369,-5.799,-2.966,3.311,-3.968,-0.115,0.760,-0.523,0.366,1.068,-0.214,80.000,13690.000,1.000
-24.200,-12.004,-9.683,-12.297,-2.442,-1.160,7.492,-0.066,-0.113,0.761,-0.522,0.336,1.129,-0.275,80.000,13691.000,1.000
-20.986,-8.711,-6.236,-10.226,0.695,-0.334,11.052,3.984,-0.114,0.761,-0.526,0.397,1.129,-0.214,80.000,13692.000,1.000
-17.558,-5.602,-2.886,-7.730,3.511,-0.469,13.397,7.622,-0.114,0.760,-0.523,0.488,1.251,-0.275,80.000,13693.000,1.000
-14.512,-3.018,-0.019,-4.804,5.985,-1.345,14.246,10.419,-0.114,0.760,-0.526,0.488,1.190,-0.275,80.000,13694.000,1.000
-12.394,-1.180,1.953,-2.363,7.961,-2.696,13.623,12.129,-0.114,0.757,-0.527,0.549,1.190,-0.183,80.000,13695.000,1.000
-11.768,-0.336,2.613,-1.500,9.304,-4.144,11.995,12.924,-0.115,0.757,-0.525,0.488,1.221,-0.214,80.000,13696.000,1.000
-12.869,-0.555,1.881,-2.653,10.084,-5.193,10.190,13.197,-0.115,0.758,-0.524,0.458,1.282,-0.183,80.000,13697.000,1.000
-15.048,-1.461,0.261,-5.526,10.496,-5.476,8.954,13.072,-0.114,0.757,-0.525,0.488,1.251,-0.275,80.000,13698.000,1.000
-16.995,-2.385,-1.425,-9.173,10.682,-4.941,8.577,12.428,-0.113,0.757,-0.525,0.519,1.251,-0.244,80.000,13699.000,1.000
-17.741,-2.744,-2.605,-12.268,10.647,-3.697,8.874,11.328,-0.114,0.758,-0.525,0.580,1.251,-0.153,80.000,13700.000,1.000
-17.158,-2.252,-3.128,-13.631,10.342,-1.799,9.409,10.109,-0.116,0.757,-0.521,0.671,1.251,-0.122,80.000,13701.000,1.000
-15.559,-0.966,-3.035,-12.828,9.815,0.714,9.809,9.031,-0.114,0.758,-0.522,0.824,1.282,-0.092,80.000,13702.000,1.000
-13.421,0.690,-2.486,-10.466,9.204,3.585,9.947,8.057,-0.114,0.759,-0.525,0.732,1.251,-0.061,80.000,13703.000,1.000
-11.452,1.993,-1.835,-7.728,8.573,6.198,9.847,7.023,-0.116,0.760,-0.523,0.793,1.343,-0.122,80.000,13704.000,1.000
-10.166,2.266,-1.366,-5.351,7.885,7.708,9.475,5.949,-0.115,0.759,-0.522,0.702,1.343,-0.153,80.000,13705.000,1.000
-9.288,1.310,-0.988,-3.172,7.154,7.415,8.748,5.089,-0.113,0.760,-0.523,0.763,1.312,-0.092,80.000,13706.000,1.000
-8.354,-0.637,-0.626,-1.032,6.435,5.097,7.688,4.595,-0.113,0.759,-0.524,0.854,1.404,-0.061,80.000,13707.000,1.000
-7.760,-3.324,-0.778,0.214,5.655,1.139,6.486,4.276,-0.115,0.759,-0.524,0.977,1.373,-0.031,80.000,13708.000,1.000
-8.466,-6.610,-2.129,-0.527,4.693,-3.524,5.439,3.891,-0.114,0.760,-0.524,0.916,1.373,-0.061,80.000,13709.000,1.000
-10.714,-10.145,-4.648,-3.012,3.685,-7.608,4.881,3.567,-0.113,0.759,-0.522,0.885,1.404,0.061,80.000,13710.000,1.000
-13.410,-13.102,-7.327,-5.380,3.120,-9.865,5.125,3.786,-0.113,0.760,-0.524,0.946,1.312,0.122,80.000,13711.000,1.000
-14.903,-14.494,-8.880,-5.585,3.455,-9.612,6.329,4.906,-0.113,0.762,-0.523,0.946,1.282,0.122,80.000,13712.000,1.000
-14.407,-13.892,-8.746,-3.365,4.555,-7.181,8.286,6.683,-0.113,0.760,-0.523,0.977,1.343,0.122,80.000,13713.000,1.000
-12.435,-11.621,-7.299,-0.337,5.757,-3.734,10.454,8.416,-0.113,0.760,-0.524,0.977,1.373,0.031,80.000,13714.000,1.000
-9.927,-8.393,-5.228,2.110,6.593,-0.451,12.343,9.613,-0.115,0.761,-0.523,1.068,1.373,0.000,80.000,13715.000,1.000
-7.645,-5.138,-3.284,3.556,7.034,2.030,13.724,10.196,-0.115,0.762,-0.525,1.007,1.404,0.000,80.000,13716.000,1.000
-6.378,-2.915,-2.410,3.446,7.101,3.639,14.527,10.184,-0.114,0.762,-0.524,1.068,1.434,-0.061,80.000,13717.000,1.000
-6.758,-2.369,-3.344,1.175,6.762,4.751,14.783,9.580,-0.112,0.761,-0.526,0.977,1.312,0.061,80.000,13718.000,1.000
-8.486,-3.153,-5.853,-2.739,6.215,6.017,14.694,8.552,-0.112,0.762,-0.525,1.068,1.343,0.061,80.000,13719.000,1.000
-10.215,-4.028,-8.633,-6.592,5.947,8.060,14.652,7.493,-0.114,0.762,-0.525,0.977,1.465,-0.031,80.000,13720.000,1.000
-10.642,-3.762,-10.153,-8.745,6.349,11.064,14.998,6.807,-0.113,0.760,-0.524,1.068,1.465,-0.031,80.000,13721.000,1.000
-9.469,-1.989,-9.583,-8.557,7.428,14.555,15.767,6.755,-0.114,0.761,-0.525,1.038,1.404,0.061,80.000,13722.000,1.000
-7.176,0.747,-7.021,-6.262,8.935,17.589,16.718,7.481,-0.114,0.762,-0.526,0.977,1.465,0.061,80.000,13723.000,1.000
-4.419,3.496,-3.341,-2.638,10.495,19.161,17.482,8.806,-0.112,0.763,-0.523,1.007,1.526,0.092,80.000,13724.000,1.000
-1.902,5.369,0.087,1.209,11.680,18.760,17.746,10.147,-0.111,0.761,-0.523,0.946,1.526,0.031,80.000,13725.000,1.000
-0.271,5.978,2.111,4.434,12.378,16.987,17.644,11.072,-0.112,0.763,-0.525,0.916,1.526,-0.092,80.000,13726.000,1.000
0.351,5.708,2.560,6.817,13.020,15.416,17.842,11.732,-0.113,0.761,-0.525,0.885,1.556,-0.031,80.000,13727.000,1.000
0.565,5.477,2.243,8.448,14.160,15.413,18.928,12.493,-0.114,0.761,-0.523,0.824,1.526,-0.092,80.000,13728.000,1.000
1.068,6.019,2.153,9.253,15.894,17.030,20.794,13.391,-0.114,0.760,-0.523,0.732,1.495,-0.092,80.000,13729.000,1.000
1.825,7.365,2.666,8.921,17.798,19.097,22.748,14.110,-0.113,0.760,-0.523,0.793,1.495,-0.061,80.000,13730.000,1.000
2.304,8.990,3.551,7.466,19.306,20.233,24.075,14.327,-0.112,0.760,-0.523,0.824,1.556,-0.122,80.000,13731.000,1.000
2.289,10.223,4.432,5.627,19.989,19.606,24.324,13.924,-0.111,0.761,-0.524,0.763,1.526,0.000,80.000,13732.000,1.000
1.943,10.482,4.945,4.295,19.563,17.068,23.282,12.932,-0.113,0.762,-0.524,0.763,1.526,-0.061,80.000,13733.000,1.000
1.393,9.530,4.788,3.793,17.984,13.155,21.034,11.442,-0.115,0.761,-0.523,0.763,1.495,-0.092,80.000,13734.000,1.000
0.656,7.744,3.921,3.906,15.666,9.039,18.111,9.663,-0.113,0.761,-0.524,0.763,1.404,-0.031,80.000,13735.000,1.000
-0.074,6.053,2.732,4.344,13.475,6.074,15.333,7.995,-0.112,0.760,-0.523,0.824,1.465,0.031,80.000,13736.000,1.000
-0.264,5.491,2.019,5.159,12.384,5.116,13.417,6.989,-0.112,0.759,-0.524,0.732,1.465,0.031,80.000,13737.000,1.000
0.655,6.608,2.606,6.701,12.954,6.194,12.711,7.052,-0.111,0.761,-0.525,0.824,1.495,0.031,80.000,13738.000,1.000
2.923,9.269,4.913,9.188,15.127,8.805,13.215,8.139,-0.111,0.762,-0.524,0.824,1.495,0.061,80.000,13739.000,1.000
6.530,13.046,8.953,12.616,18.498,12.345,14.732,9.792,-0.113,0.760,-0.525,0.824,1.434,0.092,80.000,13740.000,1.000
11.224,17.547,14.300,16.626,22.476,16.191,16.856,11.328,-0.114,0.759,-0.523,0.885,1.434,-0.031,80.000,13741.000,1.000
16.192,22.176,19.792,20.075,26.092,19.667,18.894,11.959,-0.114,0.758,-0.526,0.885,1.465,0.031,80.000,13742.000,1.000
20.211,25.967,23.821,21.688,28.270,22.248,20.079,11.176,-0.112,0.756,-0.524,0.977,1.373,0.031,80.000,13743.000,1.000
22.539,28.113,25.453,21.630,28.616,23.845,20.046,9.307,-0.113,0.760,-0.524,1.099,1.465,0.092,80.000,13744.000,1.000
23.282,28.564,25.031,21.379,27.642,24.672,19.036,7.408,-0.112,0.757,-0.522,1.099,1.434,0.092,80.000,13745.000,1.000
22.747,27.796,23.538,21.867,26.084,24.803,17.543,6.480,-0.112,0.758,-0.520,1.160,1.465,0.092,80.000,13746.000,1.000
20.981,26.082,21.708,22.644,24.262,23.995,15.850,6.869,-0.111,0.758,-0.524,1.129,1.556,0.122,80.000,13747.000,1.000
18.176,23.244,19.814,22.752,22.072,21.946,13.899,8.133,-0.112,0.756,-0.522,1.282,1.495,0.122,80.000,13748.000,1.000
15.125,19.287,18.047,21.810,19.471,18.708,11.577,9.404,-0.110,0.754,-0.521,1.343,1.465,0.122,80.000,13749.000,1.000
12.963,15.058,16.872,20.284,16.900,15.012,9.185,10.126,-0.111,0.753,-0.525,1.465,1.648,0.153,80.000,13750.000,1.000
12.497,11.942,16.896,19.082,15.232,12.136,7.598,10.520,-0.111,0.756,-0.526,1.404,1.587,0.092,80.000,13751.000,1.000
13.823,10.874,18.395,19.001,15.218,11.195,7.770,11.244,-0.112,0.758,-0.524,1.495,1.587,0.092,80.000,13752.000,1.000
16.388,11.782,21.053,20.263,16.907,12.387,9.939,12.648,-0.112,0.757,-0.524,1.556,1.556,0.122,80.000,13753.000,1.000
19.350,13.984,24.174,22.347,19.617,14.952,13.349,14.474,-0.111,0.756,-0.524,1.617,1.526,0.153,80.000,13754.000,1.000
21.992,16.806,27.104,24.352,22.382,17.775,16.703,16.086,-0.111,0.757,-0.524,1.709,1.587,0.092,80.000,13755.000,1.000
23.907,19.804,29.383,25.512,24.363,19.934,18.787,16.790,-0.111,0.758,-0.523,1.770,1.740,0.000,80.000,13756.000,1.000
24.935,22.695,30.698,25.416,25.090,20.971,18.980,16.096,-0.111,0.759,-0.525,1.862,1.587,-0.061,80.000,13757.000,1.000
25.111,25.259,30.989,24.235,24.607,20.973,17.549,14.078,-0.110,0.761,-0.526,1.923,1.678,-0.031,80.000,13758.000,1.000
24.612,27.221,30.541,22.658,23.313,20.337,15.388,11.410,-0.110,0.764,-0.527,1.831,1.617,0.000,80.000,13759.000,1.000
23.667,28.158,29.780,21.258,21.537,19.333,13.299,8.869,-0.110,0.765,-0.526,1.831,1.617,-0.092,80.000,13760.000,1.000
22.590,27.708,29.040,20.113,19.458,17.956,11.583,6.910,-0.112,0.763,-0.526,1.770,1.648,-0.092,80.000,13761.000,1.000
21.807,26.029,28.573,19.063,17.386,16.225,10.229,5.691,-0.112,0.765,-0.525,1.678,1.617,-0.183,80.000,13762.000,1.000
21.605,23.872,28.544,18.188,15.787,14.460,9.228,5.196,-0.114,0.765,-0.525,1.648,1.587,-0.336,80.000,13763.000,1.000
22.005,22.110,28.989,18.096,14.973,13.188,8.584,5.254,-0.113,0.765,-0.528,1.587,1.587,-0.336,80.000,13764.000,1.000
22.978,21.302,29.887,19.429,14.991,12.832,8.199,5.624,-0.113,0.765,-0.526,1.495,1.434,-0.397,80.000,13765.000,1.000
24.511,21.574,31.172,21.755,15.705,13.461,7.942,6.152,-0.111,0.766,-0.524,1.465,1.373,-0.458,80.000,13766.000,1.000
26.290,22.574,32.559,23.650,16.809,14.772,7.784,6.857,-0.110,0.765,-0.528,1.404,1.282,-0.549,80.000,13767.000,1.000
27.636,23.584,33.523,24.076,17.871,16.337,7.812,7.813,-0.111,0.764,-0.525,1.251,1.312,-0.488,80.000,13768.000,1.000
28.053,23.952,33.624,23.063,18.568,17.903,8.102,8.884,-0.111,0.764,-0.525,1.251,1.312,-0.519,80.000,13769.000,1.000
27.706,23.542,32.885,21.373,18.926,19.495,8.671,9.733,-0.113,0.762,-0.524,1.251,1.343,-0.549,80.000,13770.000,1.000
27.013,22.646,31.633,19.973,19.285,21.223,9.551,10.234,-0.111,0.761,-0.525,1.312,1.282,-0.519,80.000,13771.000,1.000
25.934,21.381,29.978,19.516,19.878,22.941,10.750,10.655,-0.110,0.762,-0.527,1.312,1.312,-0.549,80.000,13772.000,1.000
24.092,19.430,27.733,20.089,20.502,24.115,12.044,11.338,-0.111,0.761,-0.526,1.190,1.312,-0.488,80.000,13773.000,1.000
21.402,16.509,24.794,21.182,20.642,24.159,12.962,12.280,-0.113,0.761,-0.523,1.190,1.343,-0.458,80.000,13774.000,1.000
18.208,12.867,21.308,21.914,19.879,22.954,13.080,13.058,-0.112,0.759,-0.523,1.221,1.343,-0.488,80.000,13775.000,1.000
15.032,9.216,17.581,21.752,18.242,21.026,12.354,13.267,-0.114,0.758,-0.522,1.190,1.251,-0.336,80.000,13776.000,1.000
12.321,6.201,13.891,20.865,16.120,19.042,11.058,12.866,-0.113,0.759,-0.523,1.190,1.099,-0.336,80.000,13777.000,1.000
10.229,3.889,10.269,19.420,13.760,17.098,9.313,11.900,-0.112,0.759,-0.523,1.190,1.099,-0.397,80.000,13778.000,1.000
8.612,1.927,6.594,17.175,11.109,14.789,6.973,10.181,-0.113,0.757,-0.524,1.282,1.129,-0.458,80.000,13779.000,1.000
7.318,0.198,3.011,14.074,8.261,11.984,4.105,7.566,-0.113,0.757,-0.522,1.160,1.068,-0.305,80.000,13780.000,1.000
6.490,-0.895,0.107,10.833,5.815,9.207,1.285,4.423,-0.114,0.758,-0.522,1.160,1.007,-0.336,80.000,13781.000,1.000
6.484,-0.864,-1.449,8.645,4.563,7.209,-0.765,1.628,-0.114,0.759,-0.521,1.129,1.038,-0.336,80.000,13782.000,1.000
7.341,0.361,-1.463,8.182,4.818,6.422,-1.677,0.019,-0.114,0.759,-0.523,1.251,0.977,-0.336,80.000,13783.000,1.000
8.466,2.449,-0.362,9.070,6.177,6.937,-1.489,-0.112,-0.112,0.760,-0.521,1.190,0.824,-0.397,80.000,13784.000,1.000
8.789,4.796,0.977,10.101,7.788,8.621,-0.539,0.829,-0.112,0.761,-0.525,1.221,0.824,-0.427,80.000,13785.000,1.000
7.255,6.470,1.369,9.702,8.619,10.912,0.501,1.873,-0.112,0.761,-0.523,1.099,0.824,-0.427,80.000,13786.000,1.000
3.607,6.544,-0.150,6.971,7.877,12.874,0.893,2.010,-0.112,0.762,-0.524,1.099,0.671,-0.397,80.000,13787.000,1.000
-1.248,4.705,-3.498,2.694,5.574,13.859,0.438,0.928,-0.113,0.763,-0.525,1.038,0.702,-0.336,80.000,13788.000,1.000
-5.786,1.465,-7.402,-1.065,2.620,13.972,-0.380,-0.760,-0.115,0.765,-0.524,0.885,0.641,-0.336,80.000,13789.000,1.000
-8.670,-2.171,-10.218,-2.484,0.208,13.775,-0.895,-2.102,-0.116,0.763,-0.524,0.854,0.549,-0.366,80.000,13790.000,1.000
-9.236,-5.174,-10.931,-0.936,-0.901,13.735,-0.747,-2.488,-0.114,0.763,-0.523,0.824,0.549,-0.366,80.000,13791.000,1.000
-7.676,-6.835,-9.524,3.114,-0.638,14.023,0.089,-1.765,-0.112,0.762,-0.521,0.824,0.580,-0.336,80.000,13792.000,1.000
-4.932,-7.051,-6.875,8.168,0.477,14.529,1.412,-0.168,-0.112,0.761,-0.522,0.732,0.610,-0.336,80.000,13793.000,1.000
-2.168,-6.443,-4.426,11.749,1.552,14.838,2.750,1.582,-0.114,0.761,-0.524,0.641,0.580,-0.397,80.000,13794.000,1.000
-0.087,-5.969,-3.467,11.674,1.702,14.413,3.426,2.501,-0.112,0.762,-0.523,0.580,0.519,-0.397,80.000,13795.000,1.000
1.297,-6.165,-4.325,7.837,0.572,12.990,2.997,2.112,-0.113,0.760,-0.523,0.610,0.549,-0.366,80.000,13796.000,1.000
2.471,-6.724,-6.080,2.613,-1.391,10.809,1.659,0.962,-0.111,0.763,-0.525,0.580,0.641,-0.305,80.000,13797.000,1.000
4.077,-6.821,-7.185,-0.860,-3.260,8.404,0.038,0.125,-0.110,0.763,-0.525,0.549,0.610,-0.305,80.000,13798.000,1.000
6.544,-5.879,-6.540,-1.071,-4.308,6.251,-1.335,0.200,-0.112,0.763,-0.524,0.580,0.610,-0.366,80.000,13799.000,1.000
9.778,-4.022,-4.118,1.222,-4.349,4.695,-2.175,0.963,-0.110,0.760,-0.524,0.580,0.641,-0.366,80.000,13800.000,1.000
13.114,-1.813,-0.715,4.334,-3.588,3.991,-2.328,1.862,-0.114,0.761,-0.523,0.549,0.671,-0.458,80.000,13801.000,1.000
15.763,0.328,2.761,7.038,-2.387,4.148,-1.878,2.501,-0.113,0.761,-0.526,0.549,0.702,-0.366,80.000,13802.000,1.000
17.579,2.368,5.778,8.983,-1.214,4.770,-1.328,2.657,-0.113,0.761,-0.524,0.519,0.793,-0.305,80.000,13803.000,1.000
19.141,4.335,8.147,10.338,-0.621,5.255,-1.406,2.179,-0.110,0.759,-0.523,0.519,0.671,-0.397,80.000,13804.000,1.000
20.916,5.976,9.775,11.261,-0.984,5.221,-2.531,1.104,-0.112,0.758,-0.523,0.610,0.702,-0.336,80.000,13805.000,1.000
22.904,7.122,10.804,11.929,-2.058,4.825,-4.384,-0.164,-0.114,0.758,-0.524,0.641,0.732,-0.336,80.000,13806.000,1.000
25.153,8.181,11.829,12.787,-2.972,4.669,-6.080,-1.016,-0.112,0.758,-0.522,0.732,0.824,-0.214,80.000,13807.000,1.000
27.733,9.679,13.354,14.063,-2.991,5.260,-6.930,-1.250,-0.112,0.756,-0.526,0.824,0.793,-0.244,80.000,13808.000,1.000
30.190,11.524,15.107,15.181,-2.182,6.561,-6.970,-1.353,-0.112,0.756,-0.526,0.824,0.702,-0.305,80.000,13809.000,1.000
31.926,13.166,16.406,15.321,-1.098,8.059,-6.677,-1.881,-0.113,0.759,-0.523,0.946,0.702,-0.275,80.000,13810.000,1.000
33.163,14.303,17.145,14.658,0.023,9.179,-6.352,-2.697,-0.112,0.757,-0.521,1.007,0.793,-0.244,80.000,13811.000,1.000
34.839,15.128,17.982,14.503,1.433,9.636,-5.899,-3.037,-0.112,0.756,-0.522,1.038,0.885,-0.214,80.000,13812.000,1.000
37.216,15.840,19.349,15.620,3.213,9.408,-5.157,-2.346,-0.111,0.758,-0.523,1.160,0.916,-0.214,80.000,13813.000,1.000
39.204,16.247,20.739,17.064,4.849,8.537,-4.229,-0.808,-0.112,0.758,-0.523,1.221,0.824,-0.275,80.000,13814.000,1.000
39.495,16.017,21.307,17.354,5.787,7.187,-3.315,0.989,-0.112,0.758,-0.523,1.312,0.824,-0.305,80.000,13815.000,1.000
37.679,15.017,20.640,15.779,5.978,5.783,-2.446,2.515,-0.114,0.758,-0.524,1.404,0.885,-0.275,80.000,13816.000,1.000
34.150,13.341,18.824,12.448,5.778,4.959,-1.477,3.419,-0.113,0.758,-0.524,1.495,0.977,-0.275,80.000,13817.000,1.000
29.768,11.406,16.375,8.205,5.662,5.291,-0.231,3.599,-0.111,0.759,-0.523,1.556,1.007,-0.214,80.000,13818.000,1.000
25.686,9.945,14.097,4.491,6.017,6.942,1.333,3.216,-0.113,0.760,-0.525,1.526,0.946,-0.214,80.000,13819.000,1.000
22.901,9.589,12.623,2.562,6.924,9.525,2.985,2.526,-0.111,0.757,-0.524,1.526,0.946,-0.122,80.000,13820.000,1.000
21.580,10.409,11.949,2.609,8.057,12.344,4.311,1.752,-0.111,0.757,-0.524,1.617,1.038,-0.153,80.000,13821.000,1.000
20.960,11.932,11.482,3.740,8.814,14.621,4.897,1.090,-0.110,0.757,-0.527,1.709,1.007,-0.153,80.000,13822.000,1.000
20.182,13.549,10.604,4.822,8.626,15.584,4.427,0.566,-0.111,0.757,-0.525,1.648,1.160,-0.183,80.000,13823.000,1.000
19.005,14.660,9.113,5.131,7.210,14.633,2.782,-0.132,-0.111,0.758,-0.522,1.709,1.129,-0.092,80.000,13824.000,1.000
17.585,14.671,7.188,4.491,4.632,11.629,0.172,-1.359,-0.110,0.757,-0.521,1.862,1.129,-0.061,80.000,13825.000,1.000
16.007,13.380,5.184,3.257,1.275,7.100,-2.830,-3.023,-0.109,0.755,-0.526,1.862,1.251,-0.031,80.000,13826.000,1.000
14.283,11.190,3.405,1.959,-2.288,2.110,-5.511,-4.637,-0.112,0.755,-0.525,1.923,1.373,0.000,80.000,13827.000,1.000
12.560,8.768,1.963,0.798,-5.450,-2.106,-7.314,-5.738,-0.112,0.756,-0.527,2.014,1.404,-0.061,80.000,13828.000,1.000
11.107,6.789,0.930,-0.267,-7.599,-4.478,-7.948,-6.027,-0.112,0.754,-0.527,2.136,1.312,-0.031,80.000,13829.000,1.000
10.030,5.789,0.453,-1.235,-8.271,-4.437,-7.413,-5.370,-0.114,0.756,-0.527,2.167,1.343,-0.031,80.000,13830.000,1.000
9.058,5.801,0.468,-2.292,-7.555,-2.281,-6.135,-4.050,-0.114,0.755,-0.525,2.258,1.343,-0.031,80.000,13831.000,1.000
7.693,6.198,0.461,-3.856,-6.155,0.817,-4.870,-2.752,-0.115,0.753,-0.527,2.228,1.282,-0.122,80.000,13832.000,1.000
5.459,6.044,-0.296,-5.980,-4.892,3.470,-4.184,-1.927,-0.116,0.754,-0.525,2.319,1.221,-0.122,80.000,13833.000,1.000
2.006,4.567,-2.376,-8.251,-4.276,4.858,-4.053,-1.441,-0.114,0.754,-0.527,2.472,1.343,-0.153,80.000,13834.000,1.000
-2.606,1.529,-5.893,-10.289,-4.429,5.007,-4.070,-0.991,-0.115,0.756,-0.526,2.411,1.221,-0.092,80.000,13835.000,1.000
-7.300,-2.421,-10.005,-11.371,-4.955,4.598,-3.796,-0.347,-0.114,0.756,-0.526,2.441,1.221,-0.122,80.000,13836.000,1.000
-10.162,-5.794,-12.917,-10.055,-4.983,4.483,-2.953,0.759,-0.112,0.758,-0.524,2.380,1.129,-0.153,80.000,13837.000,1.000
-9.977,-7.175,-13.121,-5.904,-3.940,4.996,-1.712,2.275,-0.112,0.760,-0.527,2.411,1.221,-0.214,80.000,13838.000,1.000
-7.237,-6.107,-10.597,-1.050,-2.153,5.681,-0.764,3.503,-0.110,0.760,-0.525,2.380,1.221,-0.183,80.000,13839.000,1.000
-3.091,-2.948,-6.335,1.812,-0.275,5.915,-0.695,3.770,-0.111,0.761,-0.527,2.319,1.129,-0.122,80.000,13840.000,1.000
1.877,1.698,-1.194,2.342,1.564,5.614,-1.382,3.202,-0.111,0.762,-0.526,2.258,1.007,-0.061,80.000,13841.000,1.000
7.385,7.150,4.351,2.400,3.678,5.262,-2.217,2.481,-0.112,0.761,-0.526,2.228,1.038,0.000,80.000,13842.000,1.000
13.006,12.654,9.948,4.118,6.268,5.534,-2.615,2.219,-0.111,0.763,-0.530,2.045,1.007,-0.031,80.000,13843.000,1.000
18.503,17.479,15.306,8.496,9.191,6.877,-2.175,2.773,-0.112,0.761,-0.531,1.984,1.099,-0.061,80.000,13844.000,1.000
23.807,20.955,19.979,14.385,11.925,9.118,-0.811,4.068,-0.111,0.763,-0.530,1.770,1.190,0.000,80.000,13845.000,1.000
28.326,22.543,23.102,18.754,13.630,11.439,1.004,5.369,-0.112,0.763,-0.528,1.709,1.129,0.031,80.000,13846.000,1.000
30.839,22.054,23.761,19.079,13.573,12.941,2.419,5.701,-0.113,0.765,-0.525,1.587,1.007,0.031,80.000,13847.000,1.000
30.344,19.725,21.689,15.415,11.662,13.249,2.836,4.662,-0.113,0.765,-0.528,1.526,1.068,0.092,80.000,13848.000,1.000
26.909,16.077,17.515,10.038,8.580,12.677,2.382,2.722,-0.115,0.764,-0.528,1.404,1.007,-0.061,80.000,13849.000,1.000
21.541,11.713,12.294,5.396,5.303,11.858,1.720,0.769,-0.116,0.762,-0.529,1.221,1.038,0.061,80.000,13850.000,1.000
15.280,7.105,6.764,2.232,2.368,11.125,1.353,-0.626,-0.114,0.760,-0.526,1.038,1.007,-0.031,80.000,13851.000,1.000
8.960,2.680,1.388,-0.189,-0.170,10.366,1.310,-1.466,-0.114,0.762,-0.530,1.068,1.068,-0.092,80.000,13852.000,1.000
3.799,-0.858,-2.949,-2.287,-2.155,9.476,1.419,-1.985,-0.114,0.762,-0.529,0.916,0.885,0.000,80.000,13853.000,1.000
1.237,-2.654,-5.007,-3.567,-3.207,8.597,1.559,-2.334,-0.112,0.761,-0.529,0.793,0.916,-0.061,80.000,13854.000,1.000
1.791,-2.354,-4.151,-3.560,-3.207,7.899,1.611,-2.551,-0.114,0.760,-0.529,0.793,0.885,-0.061,80.000,13855.000,1.000
4.653,-0.352,-0.790,-2.298,-2.459,7.390,1.443,-2.618,-0.114,0.759,-0.528,0.702,0.885,-0.122,80.000,13856.000,1.000
8.614,2.641,4.156,0.158,-1.274,7.009,1.070,-2.453,-0.113,0.760,-0.529,0.641,0.763,-0.092,80.000,13857.000,1.000
12.737,5.912,9.700,3.636,0.210,6.724,0.627,-2.015,-0.112,0.759,-0.528,0.580,0.793,-0.153,80.000,13858.000,1.000
16.125,8.652,14.693,7.201,1.646,6.455,0.077,-1.613,-0.112,0.760,-0.527,0.488,0.793,-0.122,80.000,13859.000,1.000
17.997,10.095,18.018,9.452,2.353,6.095,-0.836,-1.922,-0.111,0.757,-0.528,0.488,0.732,-0.061,80.000,13860.000,1.000
18.366,10.028,19.168,9.395,1.826,5.645,-2.163,-3.515,-0.111,0.756,-0.529,0.519,0.793,-0.122,80.000,13861.000,1.000
18.060,8.870,18.400,6.980,0.160,5.185,-3.533,-6.272,-0.111,0.756,-0.530,0.397,0.824,-0.244,80.000,13862.000,1.000
17.744,7.221,16.332,3.331,-2.029,4.743,-4.383,-9.139,-0.111,0.758,-0.530,0.427,0.793,-0.214,80.000,13863.000,1.000
17.252,5.566,13.560,0.348,-3.859,4.409,-4.207,-10.512,-0.113,0.758,-0.524,0.427,0.732,-0.275,80.000,13864.000,1.000
15.965,4.255,10.490,-0.753,-4.544,4.362,-2.729,-9.264,-0.112,0.759,-0.527,0.427,0.763,-0.244,80.000,13865.000,1.000
13.496,3.323,7.289,-0.567,-3.861,4.554,-0.175,-5.616,-0.112,0.756,-0.527,0.458,0.702,-0.305,80.000,13866.000,1.000
9.897,2.391,4.073,-0.469,-2.219,4.540,2.714,-0.819,-0.113,0.757,-0.523,0.427,0.732,-0.336,80.000,13867.000,1.000
5.581,1.026,1.116,-0.826,-0.217,3.887,5.146,3.901,-0.112,0.758,-0.524,0.366,0.641,-0.397,80.000,13868.000,1.000
1.286,-0.801,-1.267,-1.188,1.687,2.626,6.648,7.775,-0.115,0.759,-0.529,0.366,0.671,-0.366,80.000,13869.000,1.000
-2.211,-2.789,-3.066,-1.764,3.091,1.163,7.010,10.237,-0.115,0.760,-0.526,0.275,0.702,-0.336,80.000,13870.000,1.000
-4.597,-4.636,-4.615,-3.279,3.614,-0.128,6.227,10.948,-0.114,0.761,-0.524,0.275,0.702,-0.458,80.000,13871.000,1.000
-6.014,-6.119,-6.171,-5.577,3.129,-1.130,4.549,10.150,-0.113,0.762,-0.525,0.122,0.641,-0.366,80.000,13872.000,1.000
-6.524,-6.984,-7.561,-7.529,1.891,-1.978,2.286,8.554,-0.114,0.761,-0.525,0.153,0.549,-0.336,80.000,13873.000,1.000
-5.951,-6.995,-8.320,-8.234,0.366,-2.916,-0.389,6.771,-0.115,0.762,-0.523,0.122,0.610,-0.397,80.000,13874.000,1.000
-4.301,-6.132,-8.087,-7.580,-0.977,-4.022,-3.220,5.105,-0.114,0.760,-0.525,0.061,0.610,-0.397,80.000,13875.000,1.000
-2.040,-4.697,-6.871,-5.969,-1.795,-5.064,-5.561,3.795,-0.113,0.760,-0.523,0.031,0.549,-0.366,80.000,13876.000,1.000
0.071,-3.184,-5.161,-4.191,-2.023,-5.726,-6.685,3.029,-0.114,0.761,-0.522,0.000,0.488,-0.366,80.000,13877.000,1.000
1.499,-1.962,-3.617,-3.131,-1.898,-5.935,-6.403,2.685,-0.114,0.761,-0.525,-0.061,0.519,-0.336,80.000,13878.000,1.000
2.333,-1.113,-2.573,-3.165,-1.773,-5.930,-5.191,2.380,-0.114,0.760,-0.526,-0.061,0.580,-0.458,80.000,13879.000,1.000
2.890,-0.742,-2.062,-4.037,-2.038,-6.110,-3.842,1.748,-0.114,0.758,-0.526,-0.061,0.458,-0.305,80.000,13880.000,1.000
3.165,-1.189,-2.136,-5.118,-3.130,-6.796,-3.170,0.505,-0.114,0.760,-0.524,-0.122,0.458,-0.336,80.000,13881.000,1.000
3.000,-2.641,-2.744,-5.723,-5.287,-7.983,-3.776,-1.593,-0.113,0.758,-0.523,-0.153,0.488,-0.244,80.000,13882.000,1.000
2.392,-4.816,-3.564,-5.739,-8.264,-9.307,-5.741,-4.625,-0.112,0.760,-0.526,-0.031,0.580,-0.214,80.000,13883.000,1.000
1.419,-7.144,-4.211,-5.746,-11.402,-10.277,-8.520,-8.215,-0.112,0.759,-0.527,0.000,0.610,-0.153,80.000,13884.000,1.000
0.211,-9.054,-4.449,-6.179,-13.935,-10.541,-11.234,-11.476,-0.113,0.757,-0.525,0.000,0.580,-0.092,80.000,13885.000,1.000
-1.073,-10.258,-4.312,-7.026,-15.381,-10.077,-13.218,-13.569,-0.113,0.757,-0.525,0.153,0.671,-0.153,80.000,13886.000,1.000
-2.437,-10.884,-4.128,-8.326,-15.820,-9.217,-14.355,-14.273,-0.112,0.759,-0.523,0.122,0.702,-0.153,80.000,13887.000,1.000
-4.064,-11.238,-4.268,-10.021,-15.764,-8.424,-14.976,-13.918,-0.113,0.757,-0.526,0.122,0.610,-0.153,80.000,13888.000,1.000
-5.987,-11.432,-4.832,-11.644,-15.760,-8.047,-15.624,-13.079,-0.113,0.758,-0.523,0.214,0.641,-0.153,80.000,13889.000,1.000
-7.705,-11.262,-5.484,-12.624,-15.996,-8.240,-16.674,-12.280,-0.112,0.759,-0.526,0.214,0.671,-0.153,80.000,13890.000,1.000
-8.320,-10.450,-5.577,-12.571,-16.119,-8.939,-17.780,-11.484,-0.111,0.757,-0.523,0.275,0.732,-0.214,80.000,13891.000,1.000
-7.381,-9.087,-4.721,-11.449,-15.573,-9.888,-17.976,-10.060,-0.112,0.757,-0.526,0.275,0.793,-0.275,80.000,13892.000,1.000
-5.357,-7.758,-3.170,-9.636,-14.194,-10.884,-16.717,-7.602,-0.111,0.758,-0.524,0.427,0.885,-0.153,80.000,13893.000,1.000
-2.951,-6.984,-1.413,-7.463,-12.303,-11.913,-14.498,-4.517,-0.112,0.758,-0.523,0.488,0.946,-0.275,80.000,13894.000,1.000
-0.271,-6.575,0.444,-4.693,-10.190,-12.848,-12.134,-1.485,-0.111,0.756,-0.524,0.519,0.977,-0.305,80.000,13895.000,1.000
2.950,-5.841,2.585,-0.885,-7.849,-13.258,-9.943,1.229,-0.110,0.758,-0.523,0.580,1.038,-0.214,80.000,13896.000,1.000
6.665,-4.337,4.959,3.764,-5.306,-12.775,-7.928,3.569,-0.110,0.758,-0.525,0.580,1.129,-0.244,80.000,13897.000,1.000
10.404,-2.078,7.137,8.114,-2.889,-11.491,-6.267,5.214,-0.112,0.759,-0.527,0.671,1.160,-0.275,80.000,13898.000,1.000
13.493,0.632,8.539,10.546,-1.045,-9.954,-5.341,5.754,-0.113,0.758,-0.525,0.732,1.251,-0.336,80.000,13899.000,1.000
15.249,3.175,8.730,10.031,-0.077,-8.873,-5.460,5.095,-0.113,0.756,-0.523,0.763,1.282,-0.305,80.000,13900.000,1.000
15.238,4.690,7.606,6.877,-0.138,-8.801,-6.664,3.408,-0.112,0.758,-0.527,0.824,1.312,-0.366,80.000,13901.000,1.000
13.469,4.527,5.328,2.180,-1.310,-9.919,-8.674,0.950,-0.114,0.759,-0.525,0.763,1.373,-0.336,80.000,13902.000,1.000
10.399,2.625,2.197,-3.038,-3.482,-12.003,-10.919,-1.817,-0.114,0.760,-0.522,0.824,1.373,-0.366,80.000,13903.000,1.000
6.701,-0.604,-1.394,-7.979,-6.285,-14.605,-12.801,-4.284,-0.115,0.760,-0.520,0.916,1.343,-0.519,80.000,13904.000,1.000
2.952,-4.610,-5.031,-11.987,-9.273,-17.253,-13.966,-6.028,-0.115,0.760,-0.524,0.885,1.404,-0.519,80.000,13905.000,1.000
-0.363,-8.751,-8.269,-14.573,-11.955,-19.417,-14.235,-6.860,-0.114,0.760,-0.522,0.885,1.465,-0.519,80.000,13906.000,1.000
-2.741,-12.186,-10.616,-15.544,-13.712,-20.484,-13.472,-6.735,-0.116,0.759,-0.520,0.946,1.465,-0.580,80.000,13907.000,1.000
-3.990,-14.182,-11.793,-15.253,-14.160,-20.213,-11.798,-5.938,-0.114,0.759,-0.524,0.916,1.404,-0.580,80.000,13908.000,1.000
-4.558,-14.699,-12.003,-14.531,-13.638,-19.202,-9.812,-5.176,-0.115,0.759,-0.523,0.916,1.495,-0.458,80.000,13909.000,1.000
-4.985,-14.369,-11.610,-13.997,-12.922,-18.498,-8.246,-5.080,-0.117,0.759,-0.523,0.854,1.495,-0.519,80.000,13910.000,1.000
-5.123,-13.799,-10.646,-13.457,-12.423,-18.648,-7.368,-5.672,-0.114,0.760,-0.524,0.977,1.434,-0.458,80.000,13911.000,1.000
-4.430,-13.169,-8.953,-12.161,-11.931,-19.331,-6.934,-6.539,-0.115,0.759,-0.523,0.916,1.404,-0.488,80.000,13912.000,1.000
-3.000,-12.503,-6.772,-9.674,-11.161,-19.845,-6.688,-7.366,-0.114,0.760,-0.524,0.916,1.465,-0.519,80.000,13913.000,1.000
-1.803,-11.950,-4.929,-6.596,-10.319,-19.744,-6.699,-8.194,-0.113,0.760,-0.527,0.977,1.434,-0.519,80.000,13914.000,1.000
-1.790,-11.681,-4.400,-4.406,-10.061,-19.063,-7.260,-9.286,-0.115,0.761,-0.525,1.007,1.434,-0.458,80.000,13915.000,1.000
-3.109,-11.769,-5.699,-4.455,-10.930,-18.104,-8.543,-10.792,-0.115,0.762,-0.524,1.007,1.343,-0.397,80.000,13916.000,1.000
-5.283,-12.230,-8.586,-6.774,-12.826,-17.088,-10.216,-12.297,-0.117,0.761,-0.522,0.946,1.312,-0.366,80.000,13917.000,1.000
-7.912,-13.139,-12.281,-10.046,-15.001,-16.038,-11.492,-12.843,-0.116,0.762,-0.521,0.946,1.282,-0.336,80.000,13918.000,1.000
-10.930,-14.593,-15.920,-12.988,-16.583,-14.910,-11.744,-11.811,-0.116,0.761,-0.521,1.068,1.282,-0.244,80.000,13919.000,1.000
-14.045,-16.318,-18.593,-15.005,-16.888,-13.577,-10.810,-9.510,-0.114,0.760,-0.523,1.099,1.221,-0.183,80.000,13920.000,1.000
-16.495,-17.523,-19.404,-15.571,-15.456,-11.830,-8.742,-6.650,-0.114,0.759,-0.522,1.160,1.190,-0.153,80.000,13921.000,1.000
-17.693,-17.507,-18.058,-14.164,-12.330,-9.719,-5.815,-3.783,-0.117,0.760,-0.521,1.038,1.251,-0.122,80.000,13922.000,1.000
-17.474,-16.102,-15.094,-10.730,-8.223,-7.648,-2.746,-1.372,-0.115,0.760,-0.525,1.129,1.251,-0.092,80.000,13923.000,1.000
-15.820,-13.449,-11.389,-5.784,-4.111,-5.908,-0.399,0.167,-0.116,0.760,-0.525,1.099,1.282,-0.061,80.000,13924.000,1.000
-13.108,-9.909,-7.796,-0.326,-0.748,-4.455,0.825,0.775,-0.116,0.762,-0.522,1.038,1.160,0.092,80.000,13925.000,1.000
-10.405,-6.224,-5.093,4.444,1.422,-3.300,1.064,0.839,-0.115,0.760,-0.523,1.068,1.190,0.031,80.000,13926.000,1.000
-8.819,-3.301,-3.744,7.600,2.162,-2.817,0.533,0.716,-0.114,0.761,-0.525,1.007,1.129,0.061,80.000,13927.000,1.000
-8.625,-1.652,-3.606,8.705,1.496,-3.435,-0.709,0.321,-0.113,0.762,-0.524,1.038,1.190,0.122,80.000,13928.000,1.000
-9.341,-1.204,-4.038,7.846,-0.159,-5.205,-2.512,-0.578,-0.115,0.761,-0.525,1.068,1.099,0.000,80.000,13929.000,1.000
-10.534,-1.708,-4.436,5.538,-2.149,-7.733,-4.464,-1.908,-0.114,0.761,-0.523,0.977,1.068,0.122,80.000,13930.000,1.000
-12.220,-3.030,-4.694,2.367,-3.896,-10.373,-6.027,-3.376,-0.114,0.760,-0.526,0.916,1.038,0.153,80.000,13931.000,1.000
-14.530,-5.045,-5.196,-1.179,-5.069,-12.447,-6.720,-4.733,-0.115,0.760,-0.525,0.977,1.099,0.183,80.000,13932.000,1.000
-17.406,-7.580,-6.540,-4.754,-5.740,-13.588,-6.316,-5.857,-0.113,0.759,-0.524,0.946,1.099,0.183,80.000,13933.000,1.000
-20.726,-10.472,-9.170,-8.292,-6.441,-13.986,-5.135,-6.778,-0.110,0.761,-0.525,0.946,1.129,0.244,80.000,13934.000,1.000
-24.249,-13.460,-12.897,-11.692,-7.741,-14.123,-3.965,-7.616,-0.111,0.759,-0.526,0.946,1.099,0.244,80.000,13935.000,1.000
-27.419,-16.244,-16.830,-14.380,-9.757,-14.405,-3.600,-8.556,-0.113,0.761,-0.525,0.977,1.160,0.244,80.000,13936.000,1.000
-29.595,-18.704,-20.018,-15.759,-12.192,-15.077,-4.445,-9.842,-0.114,0.762,-0.523,1.007,1.221,0.275,80.000,13937.000,1.000
-30.420,-20.648,-21.865,-15.923,-14.471,-15.992,-6.230,-11.456,-0.112,0.760,-0.523,0.977,1.251,0.244,80.000,13938.000,1.000
-29.769,-21.432,-21.892,-15.427,-15.757,-16.384,-8.020,-12.852,-0.112,0.759,-0.524,0.946,1.251,0.122,80.000,13939.000,1.000
-27.587,-20.241,-19.677,-14.526,-15.324,-15.321,-8.863,-13.379,-0.111,0.760,-0.526,0.854,1.251,0.122,80.000,13940.000,1.000
-24.231,-16.856,-15.453,-13.198,-13.178,-12.568,-8.584,-12.931,-0.112,0.760,-0.524,0.732,1.221,0.092,80.000,13941.000,1.000
-20.808,-12.034,-10.471,-11.812,-10.192,-8.894,-7.849,-12.022,-0.112,0.760,-0.522,0.824,1.251,0.061,80.000,13942.000,1.000
-18.508,-7.059,-6.304,-10.991,-7.522,-5.522,-7.508,-11.325,-0.112,0.759,-0.522,0.854,1.282,0.061,80.000,13943.000,1.000
-17.499,-2.959,-3.679,-10.543,-5.789,-3.281,-7.917,-11.161,-0.110,0.760,-0.522,0.854,1.251,0.061,80.000,13944.000,1.000
-16.812,-0.149,-2.132,-9.178,-4.725,-2.228,-8.718,-11.258,-0.112,0.759,-0.523,0.885,1.282,0.000,80.000,13945.000,1.000
-15.488,1.275,-0.886,-6.182,-3.726,-2.050,-9.182,-11.017,-0.111,0.759,-0.524,0.916,1.343,0.031,80.000,13946.000,1.000
-13.650,1.116,0.128,-2.814,-2.684,-2.707,-8.863,-10.058,-0.112,0.759,-0.523,0.854,1.373,0.000,80.000,13947.000,1.000
-12.231,-0.788,0.397,-1.013,-2.051,-4.421,-7.918,-8.467,-0.110,0.758,-0.524,0.854,1.373,-0.092,80.000,13948.000,1.000
-11.893,-4.028,-0.294,-1.377,-2.155,-7.059,-6.781,-6.612,-0.110,0.760,-0.523,0.793,1.465,-0.092,80.000,13949.000,1.000
-12.475,-7.397,-1.417,-2.976,-2.726,-9.742,-5.631,-4.764,-0.114,0.761,-0.525,0.702,1.465,-0.153,80.000,13950.000,1.000
-13.242,-9.419,-2.095,-4.468,-3.088,-11.279,-4.297,-2.963,-0.113,0.760,-0.523,0.763,1.373,-0.153,80.000,13951.000,1.000
-13.389,-9.309,-1.790,-5.032,-2.744,-11.039,-2.690,-1.340,-0.113,0.760,-0.521,0.793,1.434,-0.183,80.000,13952.000,1.000
-12.313,-7.461,-0.540,-4.353,-1.690,-9.343,-1.089,-0.352,-0.113,0.761,-0.522,0.732,1.343,-0.183,80.000,13953.000,1.000
-9.815,-4.887,1.352,-2.173,-0.181,-6.991,0.148,-0.365,-0.114,0.762,-0.524,0.732,1.343,-0.122,80.000,13954.000,1.000
-6.420,-2.372,3.496,1.411,1.558,-4.551,1.063,-1.159,-0.113,0.760,-0.525,0.702,1.373,-0.214,80.000,13955.000,1.000
-3.294,-0.215,5.304,5.310,3.274,-2.154,2.086,-2.052,-0.113,0.761,-0.523,0.732,1.373,-0.244,80.000,13956.000,1.000
-1.385,1.690,6.237,7.983,4.602,0.166,3.521,-2.476,-0.114,0.760,-0.524,0.671,1.373,-0.244,80.000,13957.000,1.000
-0.699,3.650,6.319,8.798,5.286,2.193,5.252,-2.269,-0.114,0.760,-0.525,0.610,1.434,-0.244,80.000,13958.000,1.000
-0.604,5.777,6.101,8.571,5.370,3.624,6.959,-1.491,-0.113,0.760,-0.522,0.702,1.465,-0.275,80.000,13959.000,1.000
-0.750,7.665,5.924,8.458,4.974,4.209,8.271,-0.374,-0.113,0.760,-0.523,0.671,1.343,-0.366,80.000,13960.000,1.000
-1.564,8.546,5.260,8.198,3.868,3.727,8.641,0.404,-0.114,0.763,-0.526,0.610,1.373,-0.305,80.000,13961.000,1.000
-3.942,7.766,2.963,5.886,1.550,2.080,7.405,-0.184,-0.113,0.763,-0.525,0.610,1.373,-0.336,80.000,13962.000,1.000
-8.514,5.244,-1.680,0.073,-2.135,-0.451,4.236,-2.740,-0.114,0.762,-0.523,0.549,1.343,-0.275,80.000,13963.000,1.000
-14.848,1.732,-8.022,-8.038,-6.507,-3.170,-0.416,-6.684,-0.113,0.762,-0.527,0.549,1.282,-0.214,80.000,13964.000,1.000
-21.220,-1.366,-14.182,-15.010,-10.218,-5.229,-5.319,-10.391,-0.111,0.761,-0.526,0.519,1.251,-0.214,80.000,13965.000,1.000
-25.586,-2.849,-18.263,-17.892,-12.055,-6.102,-9.061,-12.337,-0.112,0.761,-0.525,0.458,1.221,-0.214,80.000,13966.000,1.000
-27.109,-2.764,-19.695,-16.463,-11.756,-5.987,-10.870,-12.242,-0.113,0.762,-0.522,0.549,1.221,-0.214,80.000,13967.000,1.000
-26.567,-2.351,-19.372,-12.915,-10.019,-5.692,-10.896,-10.937,-0.110,0.761,-0.523,0.641,1.373,-0.183,80.000,13968.000,1.000
-25.130,-2.733,-18.422,-9.576,-7.677,-5.911,-9.755,-9.286,-0.111,0.762,-0.524,0.671,1.221,-0.092,80.000,13969.000,1.000
-23.247,-4.022,-17.164,-7.291,-5.175,-6.796,-8.074,-7.669,-0.111,0.761,-0.522,0.641,1.282,-0.031,80.000,13970.000,1.000
-21.027,-5.709,-15.409,-5.743,-2.842,-8.216,-6.454,-6.359,-0.113,0.763,-0.521,0.610,1.251,-0.031,80.000,13971.000,1.000
-18.870,-7.329,-13.117,-4.132,-1.121,-9.988,-5.401,-5.630,-0.113,0.761,-0.522,0.641,1.251,0.000,80.000,13972.000,1.000
-17.183,-8.687,-10.445,-1.455,-0.273,-11.760,-5.068,-5.332,-0.112,0.762,-0.523,0.610,1.221,-0.092,80.000,13973.000,1.000
-16.079,-9.880,-7.755,2.446,-0.245,-13.105,-5.239,-4.959,-0.110,0.762,-0.523,0.641,1.251,-0.153,80.000,13974.000,1.000
-15.795,-11.298,-5.831,5.928,-0.949,-13.892,-5.680,-4.368,-0.110,0.760,-0.522,0.702,1.251,-0.092,80.000,13975.000,1.000
-16.920,-13.356,-5.642,6.693,-2.390,-14.344,-6.386,-4.007,-0.110,0.759,-0.521,0.793,1.160,-0.122,80.000,13976.000,1.000
-19.761,-15.988,-7.522,3.992,-4.357,-14.576,-7.374,-4.273,-0.113,0.757,-0.520,0.793,1.129,-0.183,80.000,13977.000,1.000
-23.576,-18.365,-10.615,-0.615,-6.159,-14.189,-8.281,-4.918,-0.110,0.757,-0.519,0.916,1.129,-0.153,80.000,13978.000,1.000
-26.620,-19.118,-13.097,-4.205,-6.819,-12.452,-8.369,-5.172,-0.109,0.756,-0.520,1.038,1.160,-0.214,80.000,13979.000,1.000
-27.046,-16.914,-13.055,-4.217,-5.621,-8.871,-7.053,-4.356,-0.109,0.753,-0.520,1.099,1.160,-0.244,80.000,13980.000,1.000
-24.122,-11.324,-9.688,-0.480,-2.735,-3.781,-4.531,-2.526,-0.109,0.754,-0.522,1.190,1.221,-0.275,80.000,13981.000,1.000
-18.705,-3.493,-3.903,4.273,0.710,1.546,-1.803,-0.572,-0.110,0.755,-0.525,1.404,1.160,-0.244,80.000,13982.000,1.000
-12.260,4.477,2.604,6.998,3.549,5.665,0.148,0.671,-0.110,0.757,-0.525,1.526,1.343,-0.275,80.000,13983.000,1.000
-5.754,10.993,8.647,7.250,5.467,7.849,1.100,1.297,-0.111,0.758,-0.524,1.587,1.282,-0.305,80.000,13984.000,1.000
0.279,15.457,13.662,6.794,6.731,8.108,1.374,1.963,-0.109,0.758,-0.523,1.587,1.251,-0.397,80.000,13985.000,1.000
5.352,17.803,17.256,7.340,7.550,6.787,1.271,3.045,-0.109,0.762,-0.524,1.617,1.160,-0.397,80.000,13986.000,1.000
9.248,18.430,19.342,9.629,8.162,4.530,1.034,4.566,-0.110,0.763,-0.526,1.678,1.160,-0.366,80.000,13987.000,1.000
12.156,18.252,20.311,13.460,8.944,2.241,0.973,6.424,-0.111,0.762,-0.526,1.678,1.099,-0.366,80.000,13988.000,1.000
14.175,18.043,20.516,17.242,9.906,0.532,1.149,8.131,-0.113,0.765,-0.526,1.709,1.099,-0.397,80.000,13989.000,1.000
15.183,17.840,19.926,18.463,10.520,-0.638,1.257,8.806,-0.113,0.763,-0.522,1.678,1.068,-0.427,80.000,13990.000,1.000
15.316,17.309,18.570,15.938,10.455,-1.549,1.111,7.999,-0.113,0.765,-0.522,1.556,1.068,-0.519,80.000,13991.000,1.000
15.017,16.366,16.854,11.098,10.083,-2.198,0.973,6.312,-0.114,0.767,-0.523,1.434,1.007,-0.458,80.000,13992.000,1.000
14.483,15.157,15.180,6.524,10.004,-2.429,1.249,5.011,-0.114,0.766,-0.521,1.465,0.946,-0.458,80.000,13993.000,1.000
13.596,13.743,13.541,3.820,10.355,-2.347,2.020,5.052,-0.113,0.767,-0.526,1.373,0.946,-0.427,80.000,13994.000,1.000
12.407,12.034,11.652,3.062,10.751,-2.334,2.938,6.352,-0.115,0.765,-0.526,1.312,1.007,-0.427,80.000,13995.000,1.000
11.129,9.773,9.198,3.365,10.582,-2.758,3.420,7.820,-0.113,0.766,-0.526,1.343,0.916,-0.458,80.000,13996.000,1.000
9.740,6.663,6.024,3.458,9.279,-3.747,2.955,8.123,-0.113,0.766,-0.527,1.251,0.824,-0.397,80.000,13997.000,1.000
8.156,2.902,2.433,2.403,6.737,-4.990,1.546,6.651,-0.114,0.764,-0.525,1.221,0.885,-0.305,80.000,13998.000,1.000
6.640,-0.602,-0.746,0.428,3.687,-5.736,-0.042,3.964,-0.114,0.763,-0.522,1.190,0.854,-0.275,80.000,13999.000,1.000
5.537,-2.900,-2.766,-1.388,1.300,-5.242,-0.755,1.244,-0.114,0.763,-0.522,1.099,0.854,-0.214,80.000,14000.000,1.000
4.615,-3.809,-3.761,-2.522,0.189,-3.371,-0.185,-0.749,-0.111,0.764,-0.526,1.190,0.916,-0.183,80.000,14001.000,1.000
3.141,-3.926,-4.714,-3.345,-0.006,-0.776,1.114,-1.989,-0.110,0.762,-0.523,1.129,0.916,-0.214,80.000,14002.000,1.000
0.646,-4.033,-6.579,-4.124,-0.073,1.571,2.221,-2.669,-0.111,0.760,-0.523,1.068,0.977,-0.092,80.000,14003.000,1.000
-2.767,-4.624,-9.608,-4.820,-0.562,3.118,2.565,-2.864,-0.111,0.759,-0.522,1.099,0.916,-0.122,80.000,14004.000,1.000
-6.679,-5.767,-13.361,-5.771,-1.585,4.063,2.125,-2.694,-0.111,0.759,-0.520,1.160,0.977,-0.122,80.000,14005.000,1.000
-10.508,-7.147,-17.090,-7.647,-2.944,4.958,1.193,-2.470,-0.112,0.758,-0.520,1.160,0.916,0.031,80.000,14006.000,1.000
-13.591,-8.302,-20.174,-10.713,-4.377,6.079,0.066,-2.574,-0.112,0.759,-0.518,1.190,0.916,-0.092,80.000,14007.000,1.000
-15.371,-8.891,-22.170,-14.191,-5.574,7.321,-0.956,-3.033,-0.111,0.757,-0.520,1.312,0.916,-0.122,80.000,14008.000,1.000
-15.700,-8.872,-22.789,-16.421,-6.123,8.493,-1.460,-3.290,-0.113,0.757,-0.521,1.221,0.854,-0.183,80.000,14009.000,1.000
-15.142,-8.678,-22.339,-16.352,-5.897,9.317,-1.145,-2.845,-0.112,0.757,-0.525,1.251,0.854,-0.214,80.000,14010.000,1.000
-14.700,-9.007,-21.745,-14.545,-5.298,9.362,-0.087,-1.906,-0.112,0.757,-0.524,1.221,0.885,-0.244,80.000,14011.000,1.000
-14.971,-10.174,-21.644,-12.052,-4.746,8.396,1.441,-0.904,-0.111,0.758,-0.522,1.190,0.946,-0.336,80.000,14012.000,1.000
-15.912,-11.900,-21.922,-9.389,-4.258,6.698,3.196,0.159,-0.111,0.760,-0.521,1.251,0.946,-0.366,80.000,14013.000,1.000
-17.331,-13.726,-22.221,-7.152,-3.688,4.879,4.879,1.416,-0.112,0.761,-0.521,1.221,0.854,-0.366,80.000,14014.000,1.000
-18.903,-15.186,-22.177,-6.067,-2.913,3.576,6.170,2.660,-0.113,0.763,-0.522,1.160,0.885,-0.519,80.000,14015.000,1.000
-19.897,-15.698,-21.315,-5.998,-1.763,3.266,6.984,3.551,-0.113,0.761,-0.525,1.129,0.854,-0.519,80.000,14016.000,1.000
-19.758,-14.885,-19.489,-6.251,-0.219,4.020,7.498,3.951,-0.112,0.761,-0.526,1.251,0.885,-0.519,80.000,14017.000,1.000
-18.857,-13.054,-17.326,-6.767,1.310,5.301,7.831,3.869,-0.113,0.761,-0.522,1.221,0.854,-0.519,80.000,14018.000,1.000
-18.061,-11.041,-15.718,-7.972,2.196,6.169,7.816,3.347,-0.112,0.762,-0.522,1.160,0.946,-0.580,80.000,14019.000,1.000
-17.656,-9.529,-14.925,-9.794,2.157,5.895,7.180,2.499,-0.112,0.763,-0.522,1.129,0.916,-0.702,80.000,14020.000,1.000
-17.244,-8.620,-14.410,-11.500,1.578,4.537,5.938,1.553,-0.112,0.764,-0.523,1.099,0.854,-0.671,80.000,14021.000,1.000
-16.679,-8.021,-13.565,-12.306,1.168,2.899,4.540,0.816,-0.111,0.763,-0.523,1.007,0.854,-0.702,80.000,14022.000,1.000
-16.415,-7.407,-12.306,-11.840,1.398,1.860,3.617,0.574,-0.113,0.763,-0.523,0.977,0.854,-0.702,80.000,14023.000,1.000
-16.732,-6.489,-10.830,-10.038,2.398,1.853,3.654,1.051,-0.113,0.764,-0.520,0.885,0.916,-0.671,80.000,14024.000,1.000
-17.167,-5.012,-9.083,-6.755,4.201,2.920,4.867,2.429,-0.114,0.764,-0.523,0.854,0.885,-0.702,80.000,14025.000,1.000
-16.972,-2.937,-6.732,-1.743,6.841,4.963,7.216,4.764,-0.112,0.764,-0.525,0.732,1.007,-0.549,80.000,14026.000,1.000
-15.957,-0.615,-3.642,4.682,10.164,7.712,10.325,7.750,-0.114,0.763,-0.523,0.732,1.099,-0.549,80.000,14027.000,1.000
-14.706,1.284,-0.247,11.197,13.622,10.551,13.429,10.720,-0.115,0.765,-0.522,0.671,1.007,-0.610,80.000,14028.000,1.000
-13.956,2.179,2.665,16.090,16.390,12.647,15.680,12.995,-0.115,0.763,-0.519,0.763,1.038,-0.458,80.000,14029.000,1.000
-13.980,1.944,4.419,18.071,17.729,13.378,16.619,14.163,-0.115,0.761,-0.520,0.671,1.007,-0.336,80.000,14030.000,1.000
-14.496,0.940,4.813,16.703,17.383,12.729,16.400,14.146,-0.114,0.761,-0.521,0.763,0.977,-0.275,80.000,14031.000,1.000
-14.955,-0.241,4.235,12.727,15.777,11.329,15.617,13.238,-0.118,0.762,-0.525,0.763,1.007,-0.244,80.000,14032.000,1.000
-15.028,-1.188,3.351,7.760,13.710,9.908,14.836,11.948,-0.116,0.760,-0.523,0.793,1.007,-0.305,80.000,14033.000,1.000
-14.874,-1.855,2.672,3.515,11.803,8.690,14.211,10.711,-0.118,0.759,-0.524,0.885,0.946,-0.214,80.000,14034.000,1.000
-14.785,-2.365,2.422,1.212,10.308,7.398,13.597,9.782,-0.115,0.759,-0.524,0.824,0.946,-0.153,80.000,14035.000,1.000
-14.763,-2.749,2.554,0.999,9.265,5.758,12.876,9.220,-0.115,0.759,-0.525,0.916,0.977,-0.061,80.000,14036.000,1.000
-14.425,-2.882,2.902,1.901,8.609,3.887,12.065,8.882,-0.116,0.759,-0.523,1.007,0.946,-0.031,80.000,14037.000,1.000
-13.131,-2.529,3.468,2.855,8.199,2.221,11.185,8.573,-0.114,0.760,-0.525,1.099,0.946,-0.031,80.000,14038.000,1.000
-10.386,-1.507,4.438,3.552,7.818,1.134,10.096,8.144,-0.115,0.756,-0.523,1.251,1.038,-0.031,80.000,14039.000,1.000
-6.259,0.109,5.877,4.234,7.156,0.610,8.480,7.397,-0.115,0.758,-0.523,1.373,0.977,-0.031,80.000,14040.000,1.000
-1.203,2.022,7.612,5.111,5.936,0.353,6.094,6.035,-0.114,0.757,-0.526,1.343,0.977,0.000,80.000,14041.000,1.000
4.450,4.047,9.430,5.968,4.185,0.259,3.120,3.917,-0.115,0.759,-0.524,1.495,1.068,0.092,80.000,14042.000,1.000
10.568,6.314,11.311,6.429,2.363,0.590,0.270,1.438,-0.115,0.758,-0.525,1.434,1.129,0.031,80.000,14043.000,1.000
17.028,9.010,13.437,6.808,1.134,1.605,-1.572,-0.478,-0.113,0.758,-0.521,1.556,1.068,0.000,80.000,14044.000,1.000
23.510,11.866,15.839,8.036,0.916,3.160,-1.861,-0.951,-0.115,0.758,-0.522,1.617,1.099,-0.061,80.000,14045.000,1.000
29.327,14.104,18.063,10.624,1.588,4.724,-0.634,0.286,-0.114,0.759,-0.522,1.678,1.129,-0.031,80.000,14046.000,1.000
33.659,15.028,19.470,14.320,2.614,5.699,1.545,2.788,-0.114,0.760,-0.525,1.831,1.221,-0.031,80.000,14047.000,1.000
36.166,14.568,19.720,18.358,3.390,5.735,3.786,5.572,-0.115,0.760,-0.525,1.801,1.099,0.000,80.000,14048.000,1.000
37.334,13.321,18.856,21.505,3.589,4.869,5.253,7.504,-0.115,0.760,-0.523,1.801,1.099,-0.031,80.000,14049.000,1.000
38.162,12.205,17.266,22.559,3.360,3.452,5.600,7.913,-0.113,0.758,-0.521,1.801,1.160,-0.092,80.000,14050.000,1.000
39.436,11.894,15.608,21.291,3.205,1.960,5.092,7.012,-0.112,0.755,-0.524,1.862,1.221,-0.061,80.000,14051.000,1.000
41.302,12.456,14.485,18.659,3.586,0.831,4.344,5.678,-0.114,0.756,-0.525,1.892,1.190,-0.092,80.000,14052.000,1.000
43.614,13.583,14.275,16.219,4.699,0.421,3.916,4.851,-0.114,0.756,-0.521,1.953,1.221,-0.092,80.000,14053.000,1.000
46.252,14.842,15.064,15.368,6.360,0.810,3.951,4.951,-0.113,0.757,-0.523,1.923,1.190,-0.092,80.000,14054.000,1.000
48.659,15.484,16.272,16.574,7.821,1.484,4.034,5.635,-0.110,0.756,-0.526,2.075,1.221,-0.031,80.000,14055.000,1.000
49.638,14.644,16.684,18.936,8.008,1.554,3.487,6.145,-0.109,0.753,-0.526,2.197,1.312,-0.092,80.000,14056.000,1.000
48.227,12.192,15.331,20.611,6.262,0.527,1.926,5.849,-0.109,0.755,-0.526,2.289,1.434,0.000,80.000,14057.000,1.000
44.557,9.031,12.175,19.917,2.734,-1.316,-0.508,4.485,-0.111,0.755,-0.526,2.289,1.465,-0.061,80.000,14058.000,1.000
39.535,6.408,7.854,16.297,-1.916,-3.286,-3.359,2.173,-0.114,0.754,-0.529,2.472,1.465,-0.092,80.000,14059.000,1.000
33.984,5.013,3.147,10.530,-7.005,-4.784,-6.183,-0.747,-0.113,0.754,-0.527,2.563,1.434,-0.122,80.000,14060.000,1.000
28.461,4.620,-1.239,4.312,-11.929,-5.511,-8.664,-3.923,-0.113,0.754,-0.526,2.533,1.526,-0.122,80.000,14061.000,1.000
23.450,4.419,-4.746,-0.681,-16.011,-5.409,-10.513,-7.006,-0.113,0.756,-0.524,2.655,1.526,-0.031,80.000,14062.000,1.000
19.123,3.602,-7.197,-3.960,-18.684,-4.610,-11.482,-9.716,-0.115,0.756,-0.525,2.716,1.556,0.061,80.000,14063.000,1.000
15.056,1.712,-8.926,-6.458,-19.982,-3.510,-11.651,-12.056,-0.114,0.756,-0.529,2.716,1.617,0.000,80.000,14064.000,1.000
10.698,-1.254,-10.451,-9.252,-20.515,-2.690,-11.440,-14.101,-0.114,0.755,-0.525,2.686,1.526,0.000,80.000,14065.000,1.000
6.057,-4.820,-11.928,-12.012,-20.755,-2.568,-11.188,-15.477,-0.114,0.756,-0.523,2.655,1.434,-0.031,80.000,14066.000,1.000
1.535,-8.327,-13.107,-13.205,-20.737,-3.317,-10.963,-15.520,-0.116,0.759,-0.529,2.594,1.404,-0.122,80.000,14067.000,1.000
-2.720,-11.439,-13.860,-11.950,-20.529,-5.101,-10.843,-14.094,-0.115,0.761,-0.529,2.472,1.343,-0.122,80.000,14068.000,1.000
-6.662,-14.187,-14.342,-8.853,-20.396,-7.985,-10.982,-11.812,-0.114,0.762,-0.527,2.472,1.312,-0.061,80.000,14069.000,1.000
-9.791,-16.598,-14.573,-4.966,-20.365,-11.493,-11.304,-9.476,-0.113,0.762,-0.527,2.289,1.343,-0.092,80.000,14070.000,1.000
-11.470,-18.467,-14.329,-0.896,-20.050,-14.540,-11.436,-7.585,-0.114,0.761,-0.527,2.289,1.282,-0.122,80.000,14071.000,1.000
-11.781,-19.456,-13.555,2.951,-19.096,-15.982,-11.008,-6.319,-0.113,0.760,-0.529,2.319,1.343,-0.153,80.000,14072.000,1.000
-11.542,-19.395,-12.629,5.812,-17.672,-15.418,-10.064,-5.749,-0.113,0.760,-0.528,2.167,1.251,-0.061,80.000,14073.000,1.000
-11.503,-18.493,-12.119,6.658,-16.477,-13.528,-9.200,-5.986,-0.114,0.758,-0.528,2.106,1.282,-0.092,80.000,14074.000,1.000
-11.889,-17.180,-12.321,5.085,-16.133,-11.528,-9.182,-7.045,-0.113,0.761,-0.528,2.045,1.404,-0.092,80.000,14075.000,1.000
-12.661,-15.851,-13.038,2.008,-16.656,-10.293,-10.432,-8.685,-0.112,0.761,-0.525,1.984,1.434,0.000,80.000,14076.000,1.000
-13.719,-14.789,-13.734,-1.052,-17.638,-10.076,-12.918,-10.541,-0.112,0.759,-0.525,1.862,1.343,0.000,80.000,14077.000,1.000
-14.818,-14.202,-13.914,-3.394,-18.816,-10.790,-16.296,-12.394,-0.112,0.759,-0.531,1.801,1.312,0.031,80.000,14078.000,1.000
-15.700,-14.262,-13.569,-5.380,-20.284,-12.218,-19.928,-14.272,-0.114,0.759,-0.530,1.801,1.343,-0.061,80.000,14079.000,1.000
-16.421,-15.060,-13.314,-7.571,-22.265,-13.941,-23.009,-16.318,-0.115,0.760,-0.531,1.709,1.373,-0.092,80.000,14080.000,1.000
-17.318,-16.474,-13.938,-10.174,-24.767,-15.286,-24.874,-18.485,-0.115,0.760,-0.532,1.617,1.312,-0.122,80.000,14081.000,1.000
-18.620,-18.179,-15.702,-12.925,-27.384,-15.566,-25.222,-20.298,-0.115,0.757,-0.528,1.617,1.282,-0.244,80.000,14082.000,1.000
-20.357,-19.884,-18.196,-15.082,-29.431,-14.537,-24.129,-21.051,-0.114,0.757,-0.530,1.556,1.190,-0.244,80.000,14083.000,1.000
-22.698,-21.456,-20.846,-16.038,-30.427,-12.681,-22.013,-20.366,-0.114,0.758,-0.528,1.495,1.160,-0.183,80.000,14084.000,1.000
-25.924,-22.827,-23.340,-16.072,-30.519,-11.036,-19.647,-18.584,-0.115,0.756,-0.528,1.434,1.068,-0.336,80.000,14085.000,1.000
-29.726,-23.794,-25.461,-15.965,-30.286,-10.576,-17.938,-16.493,-0.114,0.757,-0.530,1.373,1.068,-0.244,80.000,14086.000,1.000
-33.108,-23.994,-26.879,-16.097,-30.171,-11.543,-17.452,-14.832,-0.113,0.757,-0.528,1.343,1.038,-0.214,80.000,14087.000,1.000
-35.458,-23.280,-27.490,-16.604,-30.344,-13.358,-18.244,-14.200,-0.113,0.758,-0.527,1.312,1.007,-0.244,80.000,14088.000,1.000
-37.229,-22.146,-27.777,-18.086,-30.975,-15.186,-20.094,-15.100,-0.112,0.756,-0.528,1.251,1.038,-0.275,80.000,14089.000,1.000
-39.250,-21.553,-28.530,-21.319,-32.210,-16.576,-22.612,-17.621,-0.112,0.756,-0.529,1.251,1.068,-0.275,80.000,14090.000,1.000
-41.756,-22.242,-30.096,-26.061,-33.809,-17.663,-25.152,-21.047,-0.114,0.757,-0.526,1.221,1.007,-0.366,80.000,14091.000,1.000
-44.360,-24.240,-32.036,-30.705,-35.094,-18.887,-26.926,-24.049,-0.114,0.757,-0.527,1.221,1.099,-0.183,80.000,14092.000,1.000
-46.766,-26.979,-33.619,-33.471,-35.397,-20.487,-27.414,-25.539,-0.115,0.759,-0.529,1.068,1.068,-0.275,80.000,14093.000,1.000
-49.006,-29.595,-34.355,-33.534,-34.433,-22.178,-26.651,-25.356,-0.112,0.760,-0.526,1.007,1.068,-0.275,80.000,14094.000,1.000
-51.019,-31.167,-33.974,-31.024,-32.317,-23.229,-25.138,-24.181,-0.112,0.759,-0.530,0.946,1.099,-0.366,80.000,14095.000,1.000
-52.619,-31.241,-32.465,-26.899,-29.566,-23.028,-23.562,-22.985,-0.113,0.759,-0.526,0.916,1.099,-0.305,80.000,14096.000,1.000
-53.847,-30.316,-30.291,-22.676,-27.048,-21.722,-22.516,-22.403,-0.112,0.759,-0.527,0.854,0.977,-0.244,80.000,14097.000,1.000
-54.806,-29.430,-28.105,-19.411,-25.527,-20.178,-22.175,-22.394,-0.114,0.759,-0.529,0.763,0.916,-0.305,80.000,14098.000,1.000
-55.411,-29.305,-26.351,-17.470,-25.293,-19.475,-22.351,-22.654,-0.114,0.759,-0.530,0.610,0.946,-0.244,80.000,14099.000,1.000
-55.675,-30.010,-25.295,-17.254,-26.254,-20.399,-22.869,-23.175,-0.114,0.758,-0.527,0.671,1.007,-0.214,80.000,14100.000,1.000
-55.805,-31.146,-24.943,-18.813,-28.000,-23.026,-23.651,-24.032,-0.114,0.760,-0.529,0.580,0.977,-0.214,80.000,14101.000,1.000
-55.649,-32.166,-24.734,-20.825,-29.655,-26.568,-24.459,-24.876,-0.115,0.761,-0.526,0.610,0.946,-0.183,80.000,14102.000,1.000
-54.500,-32.575,-23.781,-21.305,-30.098,-29.732,-24.836,-25.063,-0.112,0.760,-0.527,0.458,0.885,-0.275,80.000,14103.000,1.000
-52.045,-32.183,-21.853,-19.884,-28.790,-31.472,-24.506,-24.310,-0.112,0.760,-0.528,0.336,0.885,-0.305,80.000,14104.000,1.000
-49.249,-31.344,-19.949,-18.570,-26.341,-31.510,-23.650,-23.009,-0.112,0.760,-0.528,0.397,0.977,-0.214,80.000,14105.000,1.000
-47.511,-30.519,-19.295,-19.411,-23.812,-30.091,-22.529,-21.683,-0.113,0.760,-0.529,0.397,0.763,-0.214,80.000,14106.000,1.000
-47.040,-29.515,-19.806,-21.992,-21.435,-27.347,-20.996,-20.283,-0.112,0.761,-0.529,0.244,0.916,-0.214,80.000,14107.000,1.000
-46.761,-27.606,-20.107,-24.064,-18.407,-23.195,-18.632,-18.288,-0.112,0.759,-0.528,0.214,0.854,-0.153,80.000,14108.000,1.000
-45.757,-24.591,-19.132,-24.132,-14.120,-17.934,-15.389,-15.458,-0.112,0.759,-0.524,0.336,0.916,-0.153,80.000,14109.000,1.000
-44.150,-21.373,-17.227,-22.549,-9.269,-12.601,-11.928,-12.273,-0.112,0.758,-0.525,0.336,0.854,-0.122,80.000,14110.000,1.000
-42.628,-19.331,-15.651,-20.478,-5.476,-8.480,-9.143,-9.575,-0.112,0.759,-0.528,0.275,0.885,-0.153,80.000,14111.000,1.000
-41.785,-19.289,-15.497,-18.689,-4.008,-6.308,-7.387,-7.894,-0.113,0.757,-0.528,0.275,0.946,-0.244,80.000,14112.000,1.000
-42.002,-21.080,-17.128,-17.266,-4.968,-6.027,-6.259,-7.119,-0.112,0.758,-0.529,0.336,0.946,-0.153,80.000,14113.000,1.000
-43.419,-23.819,-20.167,-16.000,-7.455,-7.102,-5.053,-6.650,-0.112,0.756,-0.528,0.366,0.885,-0.214,80.000,14114.000,1.000
-45.578,-26.378,-23.628,-14.946,-10.167,-8.917,-3.278,-5.831,-0.112,0.754,-0.528,0.305,0.977,-0.214,80.000,14115.000,1.000
-47.293,-27.786,-26.232,-14.524,-11.941,-10.895,-0.855,-4.444,-0.113,0.755,-0.527,0.305,1.007,-0.214,80.000,14116.000,1.000
-47.477,-27.692,-27.109,-15.083,-12.198,-12.467,1.910,-2.909,-0.110,0.756,-0.527,0.427,1.068,-0.183,80.000,14117.000,1.000
-46.026,-26.533,-26.302,-16.318,-11.128,-13.153,4.505,-1.899,-0.111,0.759,-0.525,0.427,1.007,-0.122,80.000,14118.000,1.000
-43.487,-25.020,-24.517,-17.264,-9.436,-12.717,6.467,-1.755,-0.111,0.758,-0.523,0.519,1.038,-0.153,80.000,14119.000,1.000
-40.276,-23.568,-22.545,-17.129,-7.873,-11.254,7.508,-2.393,-0.112,0.758,-0.529,0.488,1.129,-0.183,80.000,14120.000,1.000
-36.632,-22.217,-20.829,-15.801,-6.915,-9.178,7.527,-3.519,-0.113,0.757,-0.529,0.580,1.099,-0.183,80.000,14121.000,1.000
-32.917,-20.813,-19.324,-13.519,-6.682,-7.097,6.608,-4.755,-0.111,0.760,-0.527,0.580,1.282,-0.153,80.000,14122.000,1.000
-29.512,-19.213,-17.739,-10.740,-7.075,-5.654,4.996,-5.809,-0.111,0.759,-0.526,0.549,1.312,-0.214,80.000,14123.000,1.000
-26.437,-17.385,-15.822,-8.358,-7.898,-5.308,3.045,-6.674,-0.112,0.758,-0.527,0.671,1.373,-0.275,80.000,14124.000,1.000
-23.380,-15.355,-13.410,-7.363,-8.851,-5.982,1.172,-7.563,-0.114,0.759,-0.525,0.641,1.434,-0.305,80.000,14125.000,1.000
-20.206,-13.171,-10.537,-8.041,-9.550,-6.969,-0.225,-8.570,-0.112,0.758,-0.524,0.641,1.312,-0.305,80.000,14126.000,1.000
-17.248,-10.965,-7.579,-9.721,-9.688,-7.401,-0.882,-9.443,-0.109,0.761,-0.524,0.702,1.343,-0.153,80.000,14127.000,1.000
-15.018,-8.941,-5.110,-11.410,-9.169,-6.857,-0.750,-9.795,-0.110,0.758,-0.526,0.671,1.373,-0.214,80.000,14128.000,1.000
-13.815,-7.268,-3.568,-12.702,-8.122,-5.571,-0.072,-9.558,-0.112,0.759,-0.526,0.671,1.373,-0.244,80.000,14129.000,1.000
-13.614,-6.065,-3.022,-13.815,-6.847,-4.215,0.599,-9.079,-0.113,0.759,-0.526,0.641,1.556,-0.275,80.000,14130.000,1.000
-14.047,-5.426,-3.030,-14.576,-5.616,-3.464,0.691,-8.643,-0.114,0.760,-0.524,0.732,1.526,-0.366,80.000,14131.000,1.000
-14.395,-5.260,-2.782,-14.053,-4.436,-3.564,0.110,-8.097,-0.112,0.759,-0.527,0.763,1.556,-0.336,80.000,14132.000,1.000
-13.977,-5.201,-1.677,-11.812,-3.128,-4.210,-0.649,-7.111,-0.112,0.759,-0.527,0.702,1.526,-0.366,80.000,14133.000,1.000
-12.796,-4.823,0.186,-8.890,-1.561,-4.799,-0.893,-5.526,-0.113,0.759,-0.529,0.793,1.526,-0.458,80.000,14134.000,1.000
-11.636,-3.812,2.227,-6.770,0.407,-4.689,-0.131,-3.269,-0.113,0.760,-0.523,0.793,1.495,-0.458,80.000,14135.000,1.000
-11.261,-2.004,3.990,-5.863,3.047,-3.405,1.719,-0.361,-0.112,0.759,-0.524,0.824,1.556,-0.366,80.000,14136.000,1.000
-11.565,0.526,5.478,-5.254,6.516,-0.903,4.278,2.828,-0.114,0.759,-0.524,0.732,1.556,-0.397,80.000,14137.000,1.000
-11.665,3.425,7.060,-3.499,10.595,2.363,6.990,5.772,-0.114,0.758,-0.525,0.854,1.495,-0.397,80.000,14138.000,1.000
-10.731,6.135,9.060,0.164,14.683,5.661,9.472,8.260,-0.114,0.760,-0.527,0.885,1.526,-0.336,80.000,14139.000,1.000
-8.506,8.015,11.375,5.113,17.950,8.182,11.495,10.410,-0.114,0.760,-0.525,0.946,1.587,-0.397,80.000,14140.000,1.000
-5.130,8.658,13.598,10.010,19.715,9.286,12.853,12.362,-0.115,0.760,-0.527,0.885,1.465,-0.336,80.000,14141.000,1.000
-1.119,7.989,15.323,13.869,19.819,8.776,13.419,14.095,-0.115,0.758,-0.526,0.946,1.404,-0.244,80.000,14142.000,1.000
2.278,5.950,16.073,16.016,18.481,6.835,13.179,15.348,-0.115,0.757,-0.526,0.946,1.465,-0.305,80.000,14143.000,1.000
3.642,2.590,15.402,15.921,15.988,3.844,12.211,15.775,-0.115,0.758,-0.524,0.885,1.312,-0.214,80.000,14144.000,1.000
2.707,-1.412,13.450,13.806,12.717,0.409,10.730,15.270,-0.115,0.759,-0.525,0.854,1.312,-0.275,80.000,14145.000,1.000
0.474,-4.818,11.012,10.490,9.190,-2.677,9.060,13.955,-0.116,0.758,-0.527,0.946,1.404,-0.275,80.000,14146.000,1.000
-1.825,-6.418,9.006,6.643,5.990,-4.632,7.608,12.023,-0.116,0.758,-0.528,0.916,1.343,-0.214,80.000,14147.000,1.000
-3.223,-5.488,8.156,3.044,3.748,-4.870,6.855,9.830,-0.115,0.759,-0.526,1.038,1.373,-0.092,80.000,14148.000,1.000
-3.116,-2.165,8.744,0.670,2.927,-3.335,7.053,7.747,-0.115,0.759,-0.524,1.068,1.282,-0.122,80.000,14149.000,1.000
-1.820,2.344,10.140,-0.500,3.380,-0.747,7.874,5.717,-0.114,0.759,-0.524,0.946,1.312,-0.061,80.000,14150.000,1.000
-0.797,6.164,10.858,-1.860,4.261,1.683,8.545,3.337,-0.114,0.758,-0.525,1.068,1.221,-0.092,80.000,14151.000,1.000
-1.533,7.721,9.483,-4.621,4.513,2.804,8.318,0.472,-0.114,0.758,-0.524,1.099,1.251,-0.122,80.000,14152.000,1.000
-4.092,6.661,5.752,-8.308,3.634,2.041,6.958,-2.329,-0.115,0.762,-0.524,1.160,1.129,-0.061,80.000,14153.000,1.000
-7.203,4.029,0.809,-11.046,2.118,-0.219,5.058,-3.933,-0.116,0.761,-0.525,1.160,1.129,-0.092,80.000,14154.000,1.000
-9.616,1.490,-3.581,-11.258,1.097,-2.719,3.739,-3.326,-0.115,0.760,-0.524,1.099,1.160,-0.031,80.000,14155.000,1.000
-10.844,0.318,-6.082,-8.858,1.473,-3.985,3.871,-0.392,-0.112,0.761,-0.523,1.129,1.099,-0.061,80.000,14156.000,1.000
-10.671,0.986,-6.155,-4.758,3.504,-3.020,5.653,4.138,-0.111,0.759,-0.522,1.129,0.977,0.031,80.000,14157.000,1.000
-8.857,3.190,-4.010,-0.027,6.890,0.285,8.704,9.239,-0.113,0.760,-0.524,1.190,1.068,0.000,80.000,14158.000,1.000
-5.784,5.998,-0.642,4.026,10.812,5.007,12.153,13.787,-0.112,0.761,-0.526,1.160,1.068,0.031,80.000,14159.000,1.000
-2.743,8.343,2.586,5.952,14.102,9.577,14.871,16.705,-0.112,0.760,-0.521,1.221,1.099,0.122,80.000,14160.000,1.000
-0.831,9.796,4.925,5.254,15.949,12.670,16.112,17.532,-0.112,0.762,-0.525,1.160,1.068,0.153,80.000,14161.000,1.000
0.116,10.808,6.595,2.923,16.453,13.884,15.951,16.763,-0.111,0.760,-0.524,1.190,1.068,0.122,80.000,14162.000,1.000
1.037,12.074,8.057,0.520,16.245,13.585,14.971,15.371,-0.113,0.758,-0.522,1.129,1.068,0.092,80.000,14163.000,1.000
2.571,13.847,9.390,-0.865,15.730,12.296,13.659,14.029,-0.110,0.760,-0.524,1.190,1.099,0.031,80.000,14164.000,1.000
4.843,15.909,10.415,-0.796,14.938,10.497,12.202,12.846,-0.112,0.759,-0.522,1.251,1.160,0.000,80.000,14165.000,1.000
7.712,17.852,10.972,0.666,13.838,8.817,10.699,11.602,-0.112,0.758,-0.522,1.343,1.160,0.031,80.000,14166.000,1.000
10.695,19.119,10.962,3.045,12.467,7.839,9.335,9.994,-0.111,0.760,-0.524,1.251,1.190,0.092,80.000,14167.000,1.000
12.890,19.051,10.319,5.532,10.875,7.540,8.304,7.840,-0.112,0.759,-0.521,1.312,1.099,0.031,80.000,14168.000,1.000
13.566,17.373,9.083,7.082,9.232,7.368,7.747,5.335,-0.112,0.759,-0.523,1.282,1.099,0.000,80.000,14169.000,1.000
12.792,14.581,7.384,6.606,7.857,6.968,7.789,3.073,-0.112,0.759,-0.524,1.282,1.129,-0.061,80.000,14170.000,1.000
11.170,11.517,5.265,3.475,6.878,6.484,8.405,1.649,-0.112,0.758,-0.526,1.312,1.190,-0.061,80.000,14171.000,1.000
9.098,8.640,2.568,-1.931,5.924,6.137,9.148,1.194,-0.113,0.758,-0.524,1.312,1.129,-0.122,80.000,14172.000,1.000
6.614,5.858,-0.897,-8.289,4.308,5.719,9.218,1.310,-0.111,0.760,-0.525,1.343,1.190,-0.092,80.000,14173.000,1.000
3.896,2.944,-4.947,-13.894,1.625,4.670,7.965,1.473,-0.111,0.757,-0.525,1.282,1.221,-0.153,80.000,14174.000,1.000
1.466,-0.060,-8.873,-17.301,-1.889,2.667,5.394,1.435,-0.110,0.758,-0.525,1.373,1.221,-0.183,80.000,14175.000,1.000
-0.340,-2.916,-11.947,-18.105,-5.667,0.035,2.167,1.153,-0.111,0.759,-0.523,1.404,1.251,-0.092,80.000,14176.000,1.000
-1.659,-5.354,-13.923,-17.086,-9.185,-2.414,-0.746,0.633,-0.113,0.760,-0.524,1.343,1.221,-0.122,80.000,14177.000,1.000
-2.607,-7.009,-14.878,-15.362,-11.929,-3.933,-2.460,0.111,-0.112,0.758,-0.523,1.312,1.190,-0.244,80.000,14178.000,1.000
-2.976,-7.494,-14.882,-13.693,-13.371,-4.309,-2.553,0.045,-0.113,0.759,-0.526,1.404,1.251,-0.214,80.000,14179.000,1.000
-2.614,-6.731,-14.052,-12.418,-13.208,-3.861,-1.260,0.717,-0.111,0.757,-0.525,1.434,1.160,-0.275,80.000,14180.000,1.000
-1.637,-5.016,-12.587,-11.374,-11.449,-2.978,0.753,2.042,-0.112,0.756,-0.524,1.434,1.282,-0.275,80.000,14181.000,1.000
-0.098,-2.692,-10.558,-9.907,-8.256,-1.717,2.882,3.818,-0.110,0.758,-0.525,1.465,1.251,-0.305,80.000,14182.000,1.000
2.136,-0.036,-7.902,-7.481,-3.940,0.077,4.806,5.908,-0.113,0.761,-0.524,1.373,1.221,-0.336,80.000,14183.000,1.000
4.985,2.582,-4.780,-4.394,0.814,2.350,6.301,8.068,-0.111,0.762,-0.525,1.312,1.221,-0.275,80.000,14184.000,1.000
7.980,4.796,-1.660,-1.502,5.031,4.697,7.100,9.895,-0.111,0.762,-0.526,1.404,1.251,-0.336,80.000,14185.000,1.000
10.682,6.568,1.095,0.904,7.920,6.572,6.989,11.071,-0.113,0.762,-0.527,1.373,1.190,-0.336,80.000,14186.000,1.000
13.241,8.275,3.670,3.738,9.363,7.584,6.035,11.626,-0.112,0.762,-0.529,1.312,1.190,-0.336,80.000,14187.000,1.000
16.146,10.381,6.603,7.837,9.924,7.628,4.731,11.896,-0.113,0.762,-0.527,1.221,1.251,-0.397,80.000,14188.000,1.000
19.294,12.918,9.925,12.036,10.190,6.674,3.637,12.093,-0.112,0.762,-0.526,1.282,1.221,-0.397,80.000,14189.000,1.000
22.003,15.443,12.929,13.865,10.238,4.649,2.906,12.044,-0.112,0.761,-0.525,1.282,1.312,-0.275,80.000,14190.000,1.000
23.999,17.517,14.962,12.086,9.871,1.784,2.359,11.493,-0.112,0.760,-0.523,1.404,1.343,-0.305,80.000,14191.000,1.000
25.622,18.955,16.073,7.538,9.196,-1.127,1.958,10.501,-0.112,0.759,-0.522,1.343,1.251,-0.305,80.000,14192.000,1.000
27.140,19.721,16.802,2.210,8.775,-3.012,2.078,9.538,-0.113,0.760,-0.521,1.282,1.190,-0.305,80.000,14193.000,1.000
28.428,19.883,17.526,-1.913,9.204,-3.086,3.184,9.101,-0.111,0.760,-0.523,1.251,1.190,-0.336,80.000,14194.000,1.000
29.281,19.676,18.124,-3.845,10.490,-1.307,5.214,9.197,-0.113,0.759,-0.522,1.221,1.221,-0.214,80.000,14195.000,1.000
29.736,19.444,18.330,-3.841,11.982,1.573,7.465,9.333,-0.112,0.757,-0.526,1.190,1.221,-0.244,80.000,14196.000,1.000
30.009,19.438,18.153,-2.751,12.903,4.427,9.137,9.059,-0.112,0.758,-0.525,1.221,1.251,-0.275,80.000,14197.000,1.000
30.256,19.584,17.763,-1.357,12.841,6.279,9.793,8.277,-0.114,0.759,-0.524,1.221,1.221,-0.366,80.000,14198.000,1.000
30.576,19.459,17.304,0.070,11.833,6.502,9.298,7.139,-0.112,0.760,-0.524,1.160,1.282,-0.366,80.000,14199.000,1.000
31.187,18.601,16.976,1.901,10.219,4.938,7.691,5.977,-0.112,0.760,-0.525,1.129,1.221,-0.305,80.000,14200.000,1.000
32.418,16.843,16.960,4.590,8.414,2.109,5.243,5.172,-0.112,0.759,-0.527,1.190,1.251,-0.244,80.000,14201.000,1.000
34.460,14.414,17.160,7.963,6.715,-0.880,2.481,4.888,-0.111,0.759,-0.527,1.251,1.221,-0.305,80.000,14202.000,1.000
37.229,11.856,17.296,11.324,5.309,-2.950,0.055,5.064,-0.112,0.758,-0.529,1.190,1.160,-0.244,80.000,14203.000,1.000
40.389,9.828,17.262,14.046,4.458,-3.549,-1.375,5.691,-0.112,0.759,-0.526,1.312,1.221,-0.153,80.000,14204.000,1.000
43.471,8.944,17.256,15.971,4.507,-2.622,-1.325,6.889,-0.112,0.759,-0.526,1.282,1.221,-0.244,80.000,14205.000,1.000
46.194,9.644,17.623,17.492,5.599,-0.404,0.185,8.651,-0.113,0.758,-0.528,1.373,1.282,-0.183,80.000,14206.000,1.000
48.761,12.035,18.535,18.798,7.336,2.604,2.471,10.549,-0.114,0.758,-0.529,1.434,1.221,-0.153,80.000,14207.000,1.000
51.667,15.782,19.828,19.125,8.918,5.730,4.525,11.805,-0.112,0.759,-0.527,1.526,1.068,-0.275,80.000,14208.000,1.000
55.188,20.266,21.293,17.724,9.806,8.470,5.660,11.830,-0.113,0.759,-0.528,1.556,1.068,-0.275,80.000,14209.000,1.000
59.237,24.912,23.086,15.348,10.205,10.693,5.902,10.752,-0.112,0.757,-0.527,1.556,1.007,-0.305,80.000,14210.000,1.000
63.503,29.336,25.615,13.803,10.803,12.484,5.796,9.339,-0.113,0.757,-0.526,1.617,1.007,-0.305,80.000,14211.000,1.000
67.504,33.341,29.042,14.021,12.157,13.946,5.867,8.350,-0.112,0.753,-0.523,1.740,0.916,-0.305,80.000,14212.000,1.000
70.966,37.142,33.276,15.594,14.540,15.322,6.381,8.149,-0.113,0.753,-0.522,1.862,1.007,-0.275,80.000,14213.000,1.000
74.220,41.352,38.273,18.146,18.167,17.091,7.504,8.979,-0.113,0.752,-0.520,1.984,1.038,-0.275,80.000,14214.000,1.000
77.670,46.307,43.827,21.805,23.062,19.578,9.390,11.193,-0.111,0.752,-0.523,2.075,1.068,-0.275,80.000,14215.000,1.000
81.007,51.438,49.218,26.311,28.725,22.546,11.977,14.835,-0.109,0.752,-0.525,2.228,1.068,-0.275,80.000,14216.000,1.000
83.296,55.458,53.381,30.528,34.094,25.281,14.782,19.042,-0.111,0.752,-0.526,2.319,1.190,-0.275,80.000,14217.000,1.000
83.862,57.235,55.480,33.053,38.011,27.080,17.146,22.399,-0.111,0.753,-0.525,2.319,1.190,-0.214,80.000,14218.000,1.000
83.128,56.644,55.543,33.451,39.990,27.827,18.834,24.211,-0.112,0.756,-0.525,2.350,1.160,-0.183,80.000,14219.000,1.000
82.487,54.609,54.505,32.740,40.432,28.029,20.126,25.023,-0.113,0.755,-0.528,2.319,1.068,-0.092,80.000,14220.000,1.000
83.066,52.304,53.465,32.406,40.054,28.259,21.268,25.785,-0.112,0.755,-0.529,2.380,1.160,-0.153,80.000,14221.000,1.000
84.732,50.442,52.935,33.109,39.387,28.793,22.184,26.915,-0.115,0.755,-0.529,2.411,1.099,-0.153,80.000,14222.000,1.000
86.516,49.289,52.824,34.590,38.789,29.713,22.717,28.182,-0.114,0.757,-0.530,2.411,1.099,-0.183,80.000,14223.000,1.000
87.777,49.014,52.934,36.570,38.537,31.008,22.859,29.157,-0.114,0.759,-0.530,2.533,1.068,-0.153,80.000,14224.000,1.000
88.512,49.654,53.115,38.750,38.636,32.515,22.650,29.488,-0.114,0.762,-0.528,2.502,1.068,-0.214,80.000,14225.000,1.000
88.667,50.780,53.021,40.014,38.642,33.887,22.035,28.855,-0.114,0.762,-0.532,2.411,0.946,-0.122,80.000,14226.000,1.000
87.997,51.771,52.307,39.092,38.049,34.768,21.019,27.159,-0.115,0.764,-0.532,2.411,0.946,-0.122,80.000,14227.000,1.000
86.695,52.493,51.182,36.151,36.866,35.051,19.854,24.787,-0.116,0.762,-0.532,2.350,0.946,-0.122,80.000,14228.000,1.000
85.531,53.291,50.303,32.876,35.619,34.924,18.896,22.371,-0.116,0.763,-0.532,2.289,0.885,-0.092,80.000,14229.000,1.000
85.202,54.420,50.218,31.162,34.923,34.782,18.444,20.469,-0.115,0.762,-0.531,2.228,0.793,-0.244,80.000,14230.000,1.000
85.755,55.788,50.985,31.589,35.055,35.004,18.638,19.425,-0.114,0.759,-0.530,2.045,0.732,-0.153,80.000,14231.000,1.000
86.644,57.017,52.033,32.648,35.643,35.618,19.259,19.069,-0.113,0.759,-0.528,2.014,0.732,-0.183,80.000,14232.000,1.000
87.210,57.605,52.428,31.996,35.879,36.222,19.777,18.729,-0.111,0.759,-0.527,2.045,0.580,-0.214,80.000,14233.000,1.000
86.923,57.148,51.504,28.711,35.202,36.331,19.780,17.868,-0.111,0.759,-0.527,2.014,0.641,-0.122,80.000,14234.000,1.000
85.442,55.592,49.312,23.996,33.746,35.757,19.287,16.602,-0.111,0.760,-0.528,1.892,0.732,-0.061,80.000,14235.000,1.000
82.797,53.311,46.518,20.024,32.195,34.710,18.701,15.580,-0.110,0.759,-0.529,1.862,0.671,0.000,80.000,14236.000,1.000
79.305,50.863,43.836,18.297,31.292,33.593,18.559,15.456,-0.108,0.759,-0.528,1.953,0.763,-0.122,80.000,14237.000,1.000
75.245,48.698,41.591,18.729,31.410,32.737,19.215,16.459,-0.108,0.759,-0.529,1.953,0.824,-0.092,80.000,14238.000,1.000
70.785,46.995,39.689,19.943,32.358,32.160,20.512,18.222,-0.109,0.758,-0.530,1.953,0.763,-0.061,80.000,14239.000,1.000
66.064,45.525,37.703,20.349,33.383,31.473,21.668,19.878,-0.111,0.755,-0.528,1.923,0.885,-0.122,80.000,14240.000,1.000
61.195,43.722,35.047,19.162,33.529,30.160,21.646,20.509,-0.112,0.756,-0.529,1.892,0.854,-0.092,80.000,14241.000,1.000
56.183,41.100,31.371,16.773,32.233,28.051,19.878,19.682,-0.112,0.755,-0.531,1.923,0.854,-0.092,80.000,14242.000,1.000
50.976,37.668,27.004,14.496,29.684,25.545,16.752,17.714,-0.114,0.756,-0.527,1.740,0.916,-0.031,80.000,14243.000,1.000
45.747,34.020,22.917,13.659,26.584,23.384,13.344,15.396,-0.112,0.756,-0.530,1.709,0.916,-0.122,80.000,14244.000,1.000
41.061,30.944,20.047,14.323,23.576,22.174,10.662,13.370,-0.111,0.755,-0.529,1.862,0.916,-0.153,80.000,14245.000,1.000
37.542,28.926,18.694,15.295,20.972,22.086,9.133,11.896,-0.111,0.754,-0.528,1.831,0.885,-0.214,80.000,14246.000,1.000
35.280,27.975,18.583,15.533,18.889,22.860,8.636,11.037,-0.112,0.754,-0.527,1.770,0.916,-0.244,80.000,14247.000,1.000
33.711,27.775,19.213,14.934,17.346,24.051,8.716,10.644,-0.111,0.754,-0.528,1.770,0.977,-0.244,80.000,14248.000,1.000
32.193,27.908,20.075,14.042,16.236,25.314,8.783,10.223,-0.112,0.755,-0.531,1.709,0.916,-0.244,80.000,14249.000,1.000
30.379,27.980,20.728,13.339,15.331,26.427,8.368,9.159,-0.110,0.755,-0.530,1.648,0.946,-0.366,80.000,14250.000,1.000
28.083,27.664,20.912,12.539,14.413,27.099,7.405,7.221,-0.110,0.758,-0.529,1.587,0.916,-0.488,80.000,14251.000,1.000
25.235,26.816,20.653,10.870,13.484,26.935,6.306,4.894,-0.109,0.759,-0.525,1.526,0.946,-0.427,80.000,14252.000,1.000
22.097,25.591,20.143,8.257,12.776,25.646,5.571,3.107,-0.111,0.760,-0.526,1.404,1.038,-0.427,80.000,14253.000,1.000
19.183,24.346,19.526,5.553,12.496,23.258,5.297,2.398,-0.113,0.760,-0.531,1.373,1.007,-0.488,80.000,14254.000,1.000
16.782,23.403,18.863,3.533,12.673,20.190,5.197,2.465,-0.113,0.760,-0.530,1.282,1.038,-0.549,80.000,14255.000,1.000
14.708,22.964,18.218,2.288,13.281,17.130,5.038,2.616,-0.113,0.761,-0.526,1.160,0.916,-0.549,80.000,14256.000,1.000
12.637,23.061,17.639,1.558,14.247,14.720,4.829,2.427,-0.115,0.761,-0.531,0.977,0.824,-0.641,80.000,14257.000,1.000
10.452,23.480,17.142,1.117,15.302,13.270,4.623,1.953,-0.113,0.760,-0.529,0.916,0.824,-0.641,80.000,14258.000,1.000
8.048,23.709,16.638,0.794,15.944,12.616,4.341,1.489,-0.115,0.759,-0.526,0.916,0.916,-0.580,80.000,14259.000,1.000
5.032,22.933,15.769,0.495,15.614,12.147,3.811,1.113,-0.115,0.759,-0.529,0.824,0.854,-0.549,80.000,14260.000,1.000
1.130,20.376,14.116,0.403,14.076,11.130,2.949,0.590,-0.114,0.760,-0.525,0.732,0.824,-0.610,80.000,14261.000,1.000
-3.411,15.907,11.560,0.875,11.682,9.166,1.876,-0.161,-0.112,0.759,-0.523,0.641,0.702,-0.641,80.000,14262.000,1.000
-8.340,10.191,8.175,1.734,9.136,6.409,0.904,-0.725,-0.114,0.758,-0.526,0.641,0.824,-0.610,80.000,14263.000,1.000
-13.792,4.245,4.056,1.936,7.061,3.505,0.449,-0.484,-0.113,0.757,-0.527,0.610,0.885,-0.519,80.000,14264.000,1.000
-19.660,-1.054,-0.425,0.479,5.700,1.233,0.791,0.788,-0.115,0.758,-0.527,0.519,0.824,-0.549,80.000,14265.000,1.000
-25.116,-5.218,-4.495,-2.519,4.798,-0.082,1.742,2.557,-0.116,0.756,-0.528,0.519,0.763,-0.458,80.000,14266.000,1.000
-29.273,-8.211,-7.440,-5.964,3.745,-0.861,2.549,3.714,-0.117,0.757,-0.528,0.580,0.793,-0.488,80.000,14267.000,1.000
-32.060,-10.310,-9.086,-8.690,2.008,-1.875,2.286,3.227,-0.116,0.756,-0.528,0.580,0.793,-0.397,80.000,14268.000,1.000
-33.984,-11.765,-9.702,-10.099,-0.420,-3.497,0.457,0.746,-0.116,0.756,-0.530,0.610,0.702,-0.366,80.000,14269.000,1.000
-35.296,-12.551,-9.641,-10.300,-2.908,-5.341,-2.624,-3.258,-0.115,0.754,-0.531,0.641,0.671,-0.397,80.000,14270.000,1.000
-35.898,-12.569,-9.221,-9.734,-4.616,-6.684,-6.030,-7.725,-0.116,0.753,-0.527,0.824,0.580,-0.244,80.000,14271.000,1.000
-35.963,-12.078,-8.804,-8.780,-5.168,-7.208,-8.792,-11.452,-0.118,0.753,-0.527,0.854,0.610,-0.214,80.000,14272.000,1.000
-35.968,-11.611,-8.645,-7.711,-4.756,-7.115,-10.266,-13.570,-0.116,0.753,-0.527,0.946,0.702,-0.214,80.000,14273.000,1.000
-35.993,-11.383,-8.603,-6.660,-3.585,-6.591,-10.138,-13.742,-0.115,0.752,-0.531,1.007,0.610,-0.214,80.000,14274.000,1.000
-35.625,-11.132,-8.259,-5.703,-1.577,-5.565,-8.438,-12.153,-0.115,0.752,-0.531,1.129,0.671,-0.183,80.000,14275.000,1.000
-34.809,-10.660,-7.475,-5.219,1.279,-4.040,-5.615,-9.431,-0.113,0.752,-0.531,1.160,0.732,-0.183,80.000,14276.000,1.000
-34.171,-10.187,-6.690,-5.814,4.561,-2.363,-2.408,-6.441,-0.114,0.753,-0.529,1.282,0.732,-0.122,80.000,14277.000,1.000
-34.197,-10.038,-6.436,-7.565,7.591,-1.033,0.480,-3.934,-0.113,0.752,-0.530,1.404,0.702,-0.092,80.000,14278.000,1.000
-34.559,-10.256,-6.705,-9.566,9.907,-0.351,2.664,-2.225,-0.112,0.752,-0.528,1.587,0.671,-0.153,80.000,14279.000,1.000
-34.603,-10.732,-7.006,-10.503,11.467,-0.277,4.184,-1.119,-0.113,0.753,-0.533,1.740,0.793,-0.061,80.000,14280.000,1.000
-34.242,-11.629,-7.061,-9.791,12.333,-0.634,5.293,-0.247,-0.114,0.752,-0.531,1.770,0.824,0.000,80.000,14281.000,1.000
-33.983,-13.367,-7.141,-8.032,12.326,-1.383,6.015,0.364,-0.114,0.754,-0.531,1.831,0.854,0.031,80.000,14282.000,1.000
-34.084,-15.879,-7.497,-6.063,11.290,-2.474,6.091,0.238,-0.113,0.755,-0.528,1.923,1.007,0.031,80.000,14283.000,1.000
-34.092,-18.197,-7.810,-4.001,9.578,-3.439,5.404,-0.949,-0.113,0.754,-0.528,1.892,1.038,-0.031,80.000,14284.000,1.000
-33.599,-19.274,-7.709,-1.932,7.837,-3.566,4.171,-3.054,-0.112,0.752,-0.527,1.984,0.946,-0.031,80.000,14285.000,1.000
-33.005,-18.975,-7.555,-0.791,6.341,-2.563,2.707,-5.760,-0.111,0.750,-0.525,2.075,0.977,0.092,80.000,14286.000,1.000
-33.034,-17.966,-8.189,-1.787,4.837,-0.789,1.249,-8.811,-0.113,0.749,-0.529,2.136,1.007,0.000,80.000,14287.000,1.000
-33.774,-16.878,-9.946,-5.129,3.036,1.222,0.060,-11.872,-0.115,0.751,-0.532,2.197,1.099,0.061,80.000,14288.000,1.000
-34.432,-15.798,-12.055,-9.239,1.171,3.258,-0.455,-14.253,-0.113,0.752,-0.532,2.350,1.068,0.031,80.000,14289.000,1.000
-33.929,-14.416,-13.110,-11.480,-0.077,5.374,0.091,-15.106,-0.114,0.750,-0.531,2.289,1.251,-0.031,80.000,14290.000,1.000
-31.748,-12.462,-12.318,-10.501,-0.224,7.573,1.734,-14.121,-0.111,0.750,-0.529,2.380,1.190,0.031,80.000,14291.000,1.000
-28.276,-9.943,-10.151,-7.644,0.650,9.796,4.112,-11.836,-0.111,0.750,-0.532,2.472,1.190,0.031,80.000,14292.000,1.000
-24.295,-7.044,-7.643,-5.314,2.141,12.047,6.705,-9.161,-0.112,0.752,-0.531,2.411,1.160,0.000,80.000,14293.000,1.000
-20.056,-3.941,-5.337,-4.497,3.841,14.279,9.076,-6.673,-0.116,0.751,-0.533,2.502,1.221,0.092,80.000,14294.000,1.000
-15.021,-0.805,-3.133,-4.433,5.368,16.225,11.008,-4.384,-0.116,0.750,-0.536,2.502,1.282,0.092,80.000,14295.000,1.000
-8.670,1.994,-0.867,-3.977,6.359,17.413,12.388,-2.106,-0.115,0.750,-0.535,2.380,1.221,0.031,80.000,14296.000,1.000
-1.376,3.859,1.332,-2.618,6.660,17.466,13.043,0.134,-0.114,0.749,-0.534,2.472,1.099,-0.061,80.000,14297.000,1.000
5.800,4.359,3.174,-0.591,6.530,16.457,12.910,2.150,-0.114,0.751,-0.534,2.441,1.129,-0.122,80.000,14298.000,1.000
12.014,3.618,4.433,1.542,6.529,14.863,12.355,3.966,-0.115,0.753,-0.531,2.411,1.160,-0.031,80.000,14299.000,1.000
17.020,2.171,4.979,3.495,7.127,13.171,12.092,5.940,-0.115,0.754,-0.532,2.380,1.007,-0.122,80.000,14300.000,1.000
20.733,0.588,4.812,5.682,8.437,11.621,12.679,8.494,-0.113,0.755,-0.531,2.441,1.007,-0.183,80.000,14301.000,1.000
22.939,-0.638,4.214,8.920,10.232,10.181,14.016,11.675,-0.115,0.756,-0.536,2.258,0.946,-0.153,80.000,14302.000,1.000
23.548,-1.092,3.686,13.362,12.077,8.629,15.283,14.823,-0.115,0.760,-0.534,2.197,0.946,-0.092,80.000,14303.000,1.000
22.819,-0.591,3.621,17.929,13.543,6.826,15.462,16.822,-0.113,0.756,-0.531,2.106,0.946,-0.031,80.000,14304.000,1.000
21.062,0.543,4.000,21.161,14.400,4.984,14.062,16.899,-0.114,0.757,-0.533,1.953,1.007,-0.122,80.000,14305.000,1.000
18.262,1.555,4.309,22.133,14.540,3.476,11.335,15.121,-0.115,0.756,-0.531,1.892,0.977,-0.031,80.000,14306.000,1.000
14.414,1.832,3.896,20.582,13.833,2.384,7.907,12.141,-0.114,0.757,-0.532,1.892,0.977,-0.092,80.000,14307.000,1.000
10.172,1.295,2.564,17.151,12.274,1.353,4.382,8.812,-0.114,0.759,-0.532,1.770,1.007,-0.092,80.000,14308.000,1.000
6.546,0.145,0.676,13.396,10.089,-0.115,1.243,5.915,-0.113,0.758,-0.532,1.556,1.038,0.031,80.000,14309.000,1.000
3.946,-1.504,-1.358,10.792,7.546,-2.253,-1.221,3.863,-0.112,0.758,-0.533,1.404,1.007,0.031,80.000,14310.000,1.000
1.922,-3.613,-3.391,9.825,4.814,-4.797,-2.977,2.569,-0.113,0.758,-0.534,1.434,0.946,0.061,80.000,14311.000,1.000
-0.384,-6.102,-5.485,9.932,2.061,-7.138,-4.134,1.644,-0.113,0.759,-0.536,1.221,1.007,0.153,80.000,14312.000,1.000
-3.858,-8.986,-7.967,9.696,-0.607,-8.790,-4.846,0.603,-0.113,0.758,-0.534,1.068,0.977,0.092,80.000,14313.000,1.000
-9.048,-12.427,-11.304,7.423,-3.290,-9.745,-5.352,-1.000,-0.115,0.757,-0.533,1.038,0.977,0.061,80.000,14314.000,1.000
-15.566,-16.320,-15.435,2.469,-6.050,-10.258,-5.806,-3.269,-0.115,0.757,-0.532,1.007,0.946,0.031,80.000,14315.000,1.000
-21.835,-19.890,-19.327,-3.785,-8.469,-10.379,-6.030,-5.725,-0.115,0.755,-0.534,0.824,0.946,0.092,80.000,14316.000,1.000
-26.041,-22.124,-21.664,-8.822,-9.871,-9.905,-5.715,-7.608,-0.115,0.756,-0.533,0.732,0.793,0.153,80.000,14317.000,1.000
-27.657,-22.701,-22.004,-11.214,-10.075,-8.824,-4.867,-8.547,-0.115,0.754,-0.533,0.671,0.763,0.031,80.000,14318.000,1.000
-27.679,-22.283,-21.017,-11.526,-9.636,-7.582,-3.836,-8.734,-0.113,0.756,-0.530,0.610,0.763,0.031,80.000,14319.000,1.000
-27.423,-21.916,-19.789,-11.010,-9.320,-6.781,-2.901,-8.478,-0.112,0.758,-0.531,0.549,0.824,-0.061,80.000,14320.000,1.000
-27.707,-22.452,-19.276,-10.318,-9.613,-6.844,-2.091,-7.829,-0.111,0.757,-0.533,0.458,0.824,-0.122,80.000,14321.000,1.000
-28.987,-24.258,-20.064,-9.631,-10.630,-8.031,-1.440,-6.691,-0.110,0.757,-0.534,0.427,0.824,-0.183,80.000,14322.000,1.000
-31.323,-26.995,-22.099,-9.299,-12.218,-10.403,-1.199,-5.107,-0.110,0.756,-0.537,0.305,0.885,-0.153,80.000,14323.000,1.000
-34.148,-29.771,-24.685,-10.000,-14.118,-13.681,-1.745,-3.413,-0.110,0.754,-0.532,0.275,0.885,-0.122,80.000,14324.000,1.000
-36.533,-31.715,-26.859,-12.021,-16.090,-17.246,-3.232,-2.122,-0.111,0.755,-0.528,0.244,0.885,-0.122,80.000,14325.000,1.000
-37.787,-32.348,-27.836,-14.497,-17.883,-20.301,-5.321,-1.644,-0.110,0.757,-0.529,0.244,0.946,-0.183,80.000,14326.000,1.000
-37.810,-31.646,-27.436,-15.960,-19.319,-22.177,-7.406,-2.126,-0.113,0.755,-0.530,0.244,1.038,-0.336,80.000,14327.000,1.000
-36.993,-30.039,-26.256,-15.698,-20.469,-22.647,-9.115,-3.557,-0.112,0.754,-0.531,0.183,1.007,-0.427,80.000,14328.000,1.000
-35.778,-28.226,-25.158,-14.169,-21.444,-21.896,-10.389,-5.765,-0.113,0.753,-0.531,0.183,1.129,-0.366,80.000,14329.000,1.000
-34.470,-26.836,-24.609,-12.376,-21.996,-20.242,-11.142,-8.240,-0.112,0.756,-0.532,0.122,1.038,-0.458,80.000,14330.000,1.000
-33.366,-26.214,-24.639,-11.276,-21.631,-18.044,-11.230,-10.210,-0.112,0.759,-0.529,0.092,1.038,-0.519,80.000,14331.000,1.000
-32.561,-26.327,-25.024,-11.273,-20.138,-15.789,-10.749,-11.025,-0.114,0.757,-0.532,0.031,1.099,-0.549,80.000,14332.000,1.000
-31.461,-26.709,-25.168,-11.775,-17.778,-14.000,-10.111,-10.452,-0.111,0.758,-0.530,0.092,1.129,-0.519,80.000,14333.000,1.000
-28.961,-26.633,-24.135,-11.497,-15.005,-13.029,-9.750,-8.673,-0.114,0.757,-0.528,0.000,1.160,-0.549,80.000,14334.000,1.000
-24.324,-25.570,-21.207,-9.428,-12.180,-12.926,-9.790,-6.130,-0.114,0.755,-0.527,0.000,0.977,-0.488,80.000,14335.000,1.000
-17.707,-23.537,-16.493,-5.606,-9.580,-13.446,-9.980,-3.404,-0.115,0.756,-0.527,0.061,1.099,-0.458,80.000,14336.000,1.000
-10.055,-21.050,-11.028,-1.408,-7.564,-14.145,-9.945,-1.230,-0.116,0.756,-0.528,0.031,1.129,-0.427,80.000,14337.000,1.000
-2.710,-18.759,-6.219,1.062,-6.500,-14.505,-9.447,-0.342,-0.115,0.755,-0.527,0.000,1.099,-0.458,80.000,14338.000,1.000
3.146,-16.963,-2.980,0.561,-6.405,-14.023,-8.391,-1.056,-0.115,0.756,-0.526,0.061,1.099,-0.427,80.000,14339.000,1.000
6.993,-15.488,-1.374,-2.304,-6.858,-12.380,-6.838,-3.102,-0.115,0.758,-0.527,0.122,1.129,-0.458,80.000,14340.000,1.000
9.051,-14.007,-0.942,-5.676,-7.389,-9.670,-5.119,-5.862,-0.115,0.759,-0.529,0.061,1.038,-0.549,80.000,14341.000,1.000
9.877,-12.300,-1.107,-7.648,-7.766,-6.353,-3.705,-8.561,-0.116,0.756,-0.528,-0.061,1.038,-0.488,80.000,14342.000,1.000
9.674,-10.357,-1.496,-7.564,-8.055,-2.995,-2.891,-10.492,-0.115,0.757,-0.527,-0.061,1.129,-0.458,80.000,14343.000,1.000
8.164,-8.461,-2.104,-6.575,-8.568,-0.144,-2.721,-11.416,-0.116,0.758,-0.528,-0.061,1.099,-0.397,80.000,14344.000,1.000
5.296,-7.073,-3.021,-6.250,-9.518,1.736,-3.078,-11.530,-0.115,0.756,-0.528,-0.031,0.977,-0.366,80.000,14345.000,1.000
1.449,-6.668,-4.258,-6.915,-10.790,2.372,-3.755,-11.027,-0.114,0.755,-0.528,0.122,1.007,-0.366,80.000,14346.000,1.000
-3.228,-7.765,-5.986,-7.781,-12.232,1.710,-4.565,-9.934,-0.114,0.755,-0.529,0.031,0.885,-0.275,80.000,14347.000,1.000
-8.840,-10.684,-8.471,-7.916,-13.898,-0.089,-5.475,-8.276,-0.115,0.755,-0.527,0.000,0.916,-0.366,80.000,14348.000,1.000
-15.014,-15.040,-11.586,-7.067,-15.865,-2.664,-6.586,-6.196,-0.114,0.754,-0.526,0.061,0.885,-0.305,80.000,14349.000,1.000
-20.857,-19.715,-14.719,-6.040,-18.001,-5.532,-7.943,-3.925,-0.115,0.755,-0.525,0.092,0.854,-0.214,80.000,14350.000,1.000
-25.720,-23.503,-17.255,-5.934,-19.995,-8.181,-9.424,-1.710,-0.115,0.753,-0.529,0.153,0.946,-0.183,80.000,14351.000,1.000
-29.564,-25.681,-18.931,-6.976,-21.464,-10.143,-10.778,0.240,-0.116,0.754,-0.524,0.244,0.885,-0.214,80.000,14352.000,1.000
-32.479,-26.074,-19.724,-8.489,-22.099,-11.171,-11.739,1.668,-0.115,0.756,-0.525,0.305,0.916,-0.305,80.000,14353.000,1.000
-34.291,-24.950,-19.639,-9.696,-21.890,-11.480,-12.208,2.139,-0.114,0.756,-0.527,0.458,0.824,-0.244,80.000,14354.000,1.000
-34.927,-23.082,-18.776,-10.200,-21.209,-11.652,-12.341,1.239,-0.114,0.758,-0.526,0.427,0.854,-0.183,80.000,14355.000,1.000
-34.984,-21.676,-17.602,-10.110,-20.649,-12.247,-12.467,-1.016,-0.112,0.757,-0.528,0.549,0.946,-0.275,80.000,14356.000,1.000
-35.423,-21.788,-16.840,-9.891,-20.745,-13.512,-12.924,-4.117,-0.112,0.758,-0.528,0.580,1.007,-0.183,80.000,14357.000,1.000
-36.688,-23.663,-16.944,-9.979,-21.732,-15.407,-13.889,-7.363,-0.115,0.758,-0.529,0.641,1.038,-0.244,80.000,14358.000,1.000
-38.545,-26.690,-17.899,-10.756,-23.503,-17.773,-15.321,-10.230,-0.114,0.755,-0.531,0.580,1.007,-0.244,80.000,14359.000,1.000
-40.615,-29.828,-19.480,-12.555,-25.687,-20.300,-16.949,-12.499,-0.114,0.756,-0.528,0.702,1.007,-0.183,80.000,14360.000,1.000
-42.532,-32.019,-21.345,-15.163,-27.653,-22.378,-18.285,-14.059,-0.112,0.755,-0.524,0.763,1.007,-0.061,80.000,14361.000,1.000
-43.744,-32.534,-22.873,-17.499,-28.632,-23.284,-18.786,-14.733,-0.114,0.758,-0.525,0.854,1.129,-0.153,80.000,14362.000,1.000
-43.831,-31.297,-23.362,-18.207,-28.045,-22.688,-18.161,-14.328,-0.112,0.758,-0.526,0.916,1.160,-0.153,80.000,14363.000,1.000
-43.165,-28.987,-22.642,-16.878,-25.897,-20.931,-16.564,-12.890,-0.113,0.757,-0.526,0.885,1.221,-0.275,80.000,14364.000,1.000
-42.766,-26.591,-21.345,-14.669,-22.845,-18.671,-14.479,-10.949,-0.114,0.757,-0.526,0.885,1.282,-0.244,80.000,14365.000,1.000
-43.363,-24.693,-20.348,-13.257,-19.739,-16.271,-12.328,-9.269,-0.113,0.760,-0.527,1.007,1.343,-0.214,80.000,14366.000,1.000
-45.005,-23.415,-20.184,-13.154,-17.151,-13.741,-10.293,-8.290,-0.114,0.757,-0.528,0.946,1.373,-0.275,80.000,14367.000,1.000
-47.476,-22.972,-21.073,-13.726,-15.427,-11.276,-8.597,-8.021,-0.115,0.756,-0.527,0.977,1.465,-0.214,80.000,14368.000,1.000
-50.511,-23.648,-23.073,-14.798,-14.858,-9.452,-7.715,-8.385,-0.115,0.758,-0.527,0.824,1.373,-0.244,80.000,14369.000,1.000
-53.500,-25.286,-25.814,-16.919,-15.430,-8.822,-8.077,-9.340,-0.114,0.761,-0.528,1.007,1.404,-0.275,80.000,14370.000,1.000
-55.511,-27.240,-28.326,-19.900,-16.579,-9.558,-9.660,-10.628,-0.113,0.759,-0.524,1.007,1.404,-0.305,80.000,14371.000,1.000
-55.895,-28.828,-29.537,-22.381,-17.547,-11.422,-12.005,-11.723,-0.111,0.757,-0.522,0.977,1.434,-0.275,80.000,14372.000,1.000
-54.823,-29.770,-29.115,-23.044,-18.043,-13.927,-14.641,-12.201,-0.112,0.759,-0.522,1.038,1.526,-0.244,80.000,14373.000,1.000
-53.144,-30.290,-27.772,-21.722,-18.421,-16.545,-17.414,-12.101,-0.115,0.757,-0.524,1.099,1.526,-0.336,80.000,14374.000,1.000
-51.814,-30.782,-26.758,-19.430,-19.198,-18.724,-20.305,-11.805,-0.113,0.756,-0.526,1.129,1.495,-0.183,80.000,14375.000,1.000
-51.669,-31.478,-27.157,-17.658,-20.533,-19.877,-22.939,-11.596,-0.116,0.758,-0.527,1.038,1.495,-0.275,80.000,14376.000,1.000
-53.406,-32.563,-29.561,-17.674,-22.226,-19.707,-24.572,-11.560,-0.115,0.760,-0.527,1.007,1.465,-0.214,80.000,14377.000,1.000
-57.111,-34.425,-33.891,-19.897,-23.992,-18.598,-24.575,-11.750,-0.114,0.759,-0.525,1.099,1.495,-0.214,80.000,14378.000,1.000
-61.826,-37.375,-39.251,-23.435,-25.500,-17.335,-22.706,-12.055,-0.116,0.758,-0.528,1.038,1.495,-0.214,80.000,14379.000,1.000
-66.010,-41.068,-44.129,-26.339,-26.274,-16.317,-19.008,-12.009,-0.114,0.759,-0.525,1.099,1.556,-0.122,80.000,14380.000,1.000
-68.482,-44.470,-47.117,-26.996,-25.961,-15.299,-13.883,-11.163,-0.115,0.758,-0.528,1.068,1.434,-0.153,80.000,14381.000,1.000
-68.997,-46.562,-47.786,-25.769,-24.870,-13.961,-8.373,-9.817,-0.113,0.757,-0.526,1.068,1.465,-0.092,80.000,14382.000,1.000
-68.160,-46.988,-46.898,-24.818,-24.009,-12.450,-3.962,-9.070,-0.115,0.756,-0.527,1.190,1.465,-0.183,80.000,14383.000,1.000
-66.975,-46.091,-45.681,-26.184,-24.355,-11.261,-1.837,-9.966,-0.116,0.757,-0.528,1.129,1.495,-0.153,80.000,14384.000,1.000
-66.310,-44.494,-44.904,-30.257,-26.112,-10.776,-2.316,-12.703,-0.115,0.757,-0.526,1.129,1.373,-0.214,80.000,14385.000,1.000
-66.186,-42.623,-44.415,-35.362,-28.438,-10.953,-4.727,-16.455,-0.116,0.758,-0.527,1.282,1.282,-0.214,80.000,14386.000,1.000
-65.610,-40.610,-43.418,-38.459,-29.850,-11.370,-7.735,-19.766,-0.116,0.756,-0.530,1.282,1.251,-0.122,80.000,14387.000,1.000
-63.616,-38.638,-41.306,-37.106,-29.263,-11.638,-10.112,-21.396,-0.116,0.756,-0.528,1.282,1.160,-0.092,80.000,14388.000,1.000
-60.185,-37.044,-38.165,-31.234,-26.779,-11.769,-11.400,-21.013,-0.114,0.754,-0.527,1.282,1.190,-0.122,80.000,14389.000,1.000
-55.709,-35.867,-34.367,-22.965,-23.391,-12.059,-11.838,-19.159,-0.114,0.755,-0.527,1.373,1.221,-0.092,80.000,14390.000,1.000
-50.091,-34.557,-29.982,-14.956,-20.135,-12.801,-11.863,-16.713,-0.114,0.757,-0.523,1.465,1.221,-0.031,80.000,14391.000,1.000
-43.068,-32.429,-24.952,-9.111,-17.588,-14.172,-11.769,-14.283,-0.112,0.757,-0.527,1.404,1.160,-0.122,80.000,14392.000,1.000
-35.170,-29.339,-19.645,-6.047,-15.824,-16.114,-11.622,-11.782,-0.114,0.756,-0.526,1.434,1.099,-0.031,80.000,14393.000,1.000
-27.643,-25.657,-14.664,-4.699,-14.442,-18.125,-11.238,-8.502,-0.115,0.757,-0.525,1.434,1.038,-0.092,80.000,14394.000,1.000
-21.424,-21.729,-10.235,-2.923,-12.798,-19.353,-10.329,-3.828,-0.114,0.756,-0.526,1.465,1.068,0.031,80.000,14395.000,1.000
-16.858,-17.765,-6.307,0.276,-10.559,-19.146,-8.827,1.877,-0.115,0.759,-0.527,1.373,1.099,0.092,80.000,14396.000,1.000
-14.134,-14.034,-3.024,3.600,-7.985,-17.441,-6.926,7.223,-0.112,0.757,-0.527,1.434,1.068,0.092,80.000,14397.000,1.000
-13.092,-10.618,-0.464,5.443,-5.428,-14.582,-4.706,10.924,-0.113,0.758,-0.528,1.404,1.099,0.122,80.000,14398.000,1.000
-12.649,-7.061,1.932,6.155,-2.747,-10.999,-1.945,12.903,-0.114,0.760,-0.529,1.343,1.099,0.153,80.000,14399.000,1.000
-11.139,-2.722,5.097,7.538,0.471,-7.138,1.517,14.052,-0.114,0.760,-0.532,1.312,1.068,0.183,80.000,14400.000,1.000
-7.718,2.412,9.269,10.551,4.174,-3.460,5.325,15.115,-0.115,0.759,-0.528,1.282,1.038,0.153,80.000,14401.000,1.000
-3.304,7.425,13.361,13.924,7.553,-0.366,8.621,16.018,-0.113,0.760,-0.527,1.343,1.007,0.214,80.000,14402.000,1.000
0.320,11.140,15.799,15.263,9.584,1.899,10.512,16.142,-0.112,0.758,-0.528,1.282,1.068,0.275,80.000,14403.000,1.000
2.202,13.071,15.985,13.516,9.861,3.298,10.608,15.076,-0.111,0.757,-0.530,1.312,1.007,0.305,80.000,14404.000,1.000
2.589,13.603,14.643,9.757,8.899,4.010,9.245,13.058,-0.110,0.758,-0.531,1.312,0.946,0.397,80.000,14405.000,1.000
2.134,13.460,12.937,5.782,7.759,4.424,7.283,10.804,-0.112,0.758,-0.528,1.190,0.977,0.427,80.000,14406.000,1.000
1.298,13.199,11.549,2.699,7.308,4.976,5.586,8.963,-0.110,0.757,-0.532,1.221,0.977,0.336,80.000,14407.000,1.000
0.156,12.936,10.411,0.552,7.549,5.704,4.456,7.571,-0.109,0.758,-0.530,1.190,1.099,0.305,80.000,14408.000,1.000
-1.508,12.422,9.130,-1.175,7.646,6.092,3.553,6.083,-0.110,0.756,-0.532,1.251,1.099,0.305,80.000,14409.000,1.000
-3.857,11.411,7.511,-2.754,6.739,5.567,2.444,4.129,-0.110,0.755,-0.527,1.221,1.160,0.275,80.000,14410.000,1.000
-6.725,9.805,5.579,-3.990,4.637,3.968,1.127,2.060,-0.111,0.756,-0.530,1.221,1.160,0.244,80.000,14411.000,1.000
-9.563,7.587,3.358,-4.598,1.777,1.481,-0.086,0.601,-0.111,0.756,-0.528,1.160,1.251,0.122,80.000,14412.000,1.000
-11.815,4.784,0.808,-4.516,-1.257,-1.613,-1.013,0.114,-0.111,0.756,-0.531,1.129,1.251,0.092,80.000,14413.000,1.000
-13.479,1.395,-2.118,-3.802,-4.037,-4.989,-1.803,0.357,-0.110,0.756,-0.528,1.129,1.282,-0.031,80.000,14414.000,1.000
-15.062,-2.559,-5.331,-2.732,-6.345,-8.271,-2.818,0.722,-0.111,0.757,-0.530,1.129,1.343,-0.061,80.000,14415.000,1.000
-17.038,-6.840,-8.623,-2.386,-8.226,-11.146,-4.407,0.501,-0.113,0.755,-0.526,1.068,1.404,-0.183,80.000,14416.000,1.000
-19.452,-10.848,-11.729,-4.081,-9.835,-13.362,-6.568,-0.693,-0.112,0.757,-0.527,1.190,1.373,-0.153,80.000,14417.000,1.000
-21.879,-13.685,-14.246,-7.634,-11.055,-14.602,-8.750,-2.472,-0.113,0.757,-0.528,1.190,1.373,-0.214,80.000,14418.000,1.000
-23.585,-14.487,-15.615,-11.107,-11.451,-14.592,-10.189,-3.892,-0.112,0.758,-0.527,1.160,1.343,-0.214,80.000,14419.000,1.000
-23.750,-12.867,-15.349,-12.440,-10.722,-13.323,-10.474,-4.248,-0.111,0.758,-0.528,1.160,1.282,-0.214,80.000,14420.000,1.000
-21.978,-9.237,-13.509,-11.091,-9.147,-11.131,-9.801,-3.729,-0.113,0.758,-0.530,1.129,1.312,-0.305,80.000,14421.000,1.000
-18.820,-4.709,-10.913,-8.312,-7.457,-8.519,-8.688,-3.250,-0.113,0.757,-0.530,1.099,1.312,-0.427,80.000,14422.000,1.000
-15.504,-0.526,-8.650,-5.921,-6.192,-5.791,-7.471,-3.498,-0.114,0.757,-0.529,1.129,1.282,-0.427,80.000,14423.000,1.000
-12.980,2.414,-7.381,-4.896,-5.427,-2.999,-6.169,-4.397,-0.112,0.757,-0.526,1.160,1.282,-0.488,80.000,14424.000,1.000
-11.219,3.714,-7.024,-4.959,-5.073,-0.287,-4.760,-5.412,-0.113,0.757,-0.528,1.129,1.282,-0.488,80.000,14425.000,1.000
-9.477,3.567,-6.894,-4.983,-5.067,2.001,-3.282,-5.943,-0.112,0.756,-0.528,1.068,1.190,-0.458,80.000,14426.000,1.000
-7.258,2.559,-6.297,-3.889,-5.288,3.405,-1.747,-5.528,-0.113,0.756,-0.527,1.160,1.251,-0.458,80.000,14427.000,1.000
-4.727,1.219,-5.068,-1.363,-5.578,3.368,-0.189,-4.098,-0.116,0.757,-0.531,1.160,1.129,-0.488,80.000,14428.000,1.000
-2.284,-0.213,-3.502,2.152,-5.859,1.400,1.162,-2.077,-0.114,0.757,-0.529,1.221,1.068,-0.427,80.000,14429.000,1.000
-0.419,-1.749,-2.160,5.589,-6.281,-2.515,1.838,-0.174,-0.114,0.757,-0.527,1.190,1.160,-0.366,80.000,14430.000,1.000
0.142,-3.534,-1.760,7.367,-7.166,-7.681,1.420,1.011,-0.115,0.757,-0.530,1.190,1.007,-0.366,80.000,14431.000,1.000
-1.005,-5.662,-2.716,6.350,-8.593,-12.818,0.054,1.369,-0.113,0.759,-0.530,1.251,1.099,-0.275,80.000,14432.000,1.000
-3.247,-8.059,-4.690,2.986,-10.087,-16.591,-1.501,1.261,-0.114,0.758,-0.529,1.190,1.007,-0.214,80.000,14433.000,1.000
-5.356,-10.527,-6.934,-1.071,-11.011,-18.347,-2.559,1.020,-0.113,0.758,-0.531,1.129,0.946,-0.092,80.000,14434.000,1.000
-6.442,-12.793,-8.908,-4.294,-11.195,-18.461,-3.177,0.555,-0.114,0.757,-0.531,1.160,1.007,0.031,80.000,14435.000,1.000
-6.099,-14.436,-10.242,-5.739,-10.952,-17.898,-3.965,-0.380,-0.113,0.757,-0.527,1.190,1.068,0.122,80.000,14436.000,1.000
-4.231,-15.045,-10.636,-4.989,-10.695,-17.604,-5.451,-1.759,-0.113,0.756,-0.528,1.190,1.160,0.183,80.000,14437.000,1.000
-1.476,-14.716,-10.319,-2.725,-10.816,-18.237,-7.804,-3.389,-0.113,0.757,-0.528,1.221,1.099,0.153,80.000,14438.000,1.000
0.819,-14.024,-10.023,-0.776,-11.601,-19.896,-10.846,-5.168,-0.114,0.758,-0.526,1.221,1.099,0.244,80.000,14439.000,1.000
1.755,-13.314,-10.095,-0.559,-12.975,-21.943,-14.043,-6.984,-0.115,0.757,-0.528,1.190,1.038,0.305,80.000,14440.000,1.000
1.698,-12.351,-10.099,-1.747,-14.398,-23.298,-16.604,-8.560,-0.113,0.756,-0.527,1.190,1.038,0.427,80.000,14441.000,1.000
1.654,-10.730,-9.470,-2.942,-15.112,-22.968,-17.803,-9.613,-0.112,0.754,-0.530,1.373,1.129,0.336,80.000,14442.000,1.000
2.225,-8.302,-8.064,-3.054,-14.467,-20.405,-17.273,-10.014,-0.111,0.752,-0.529,1.404,1.190,0.366,80.000,14443.000,1.000
3.493,-5.166,-5.896,-1.572,-12.098,-15.656,-15.051,-9.658,-0.112,0.751,-0.528,1.465,1.099,0.336,80.000,14444.000,1.000
5.398,-1.654,-2.958,1.497,-8.202,-9.539,-11.635,-8.553,-0.110,0.750,-0.529,1.556,1.068,0.275,80.000,14445.000,1.000
7.710,1.579,0.414,5.276,-3.825,-3.676,-8.146,-7.230,-0.111,0.749,-0.529,1.678,1.129,0.275,80.000,14446.000,1.000
9.996,3.927,3.535,8.435,-0.397,0.179,-5.902,-6.483,-0.111,0.750,-0.531,1.831,1.282,0.122,80.000,14447.000,1.000
11.946,5.343,5.942,10.388,1.311,1.167,-5.408,-6.457,-0.112,0.750,-0.529,1.831,1.312,0.031,80.000,14448.000,1.000
13.621,6.142,7.610,11.609,1.624,-0.321,-6.001,-6.433,-0.110,0.749,-0.529,1.953,1.312,0.031,80.000,14449.000,1.000
15.245,6.491,8.663,12.657,1.337,-3.243,-6.660,-5.743,-0.109,0.749,-0.529,2.045,1.312,-0.031,80.000,14450.000,1.000
16.832,6.316,9.182,13.473,0.987,-6.589,-6.893,-4.490,-0.109,0.749,-0.529,2.045,1.251,-0.092,80.000,14451.000,1.000
18.086,5.516,9.237,13.754,0.730,-9.683,-6.791,-3.263,-0.110,0.750,-0.530,2.075,1.343,-0.092,80.000,14452.000,1.000
18.727,4.126,8.886,13.347,0.580,-12.196,-6.607,-2.566,-0.110,0.751,-0.529,2.167,1.221,-0.275,80.000,14453.000,1.000
18.833,2.487,8.260,12.327,0.633,-13.916,-6.426,-2.481,-0.110,0.752,-0.534,2.350,1.343,-0.244,80.000,14454.000,1.000
18.826,1.275,7.727,11.293,1.086,-14.553,-6.092,-2.633,-0.110,0.754,-0.534,2.319,1.404,-0.214,80.000,14455.000,1.000
19.146,1.096,7.741,11.250,1.998,-13.946,-5.406,-2.525,-0.112,0.755,-0.538,2.167,1.434,-0.275,80.000,14456.000,1.000
19.876,1.923,8.348,12.639,3.092,-12.351,-4.424,-2.089,-0.112,0.758,-0.536,2.167,1.404,-0.336,80.000,14457.000,1.000
20.720,3.112,9.057,14.713,3.961,-10.254,-3.492,-1.771,-0.113,0.759,-0.534,2.075,1.312,-0.397,80.000,14458.000,1.000
21.296,4.044,9.344,16.318,4.492,-7.894,-2.927,-1.991,-0.113,0.761,-0.532,2.075,1.434,-0.366,80.000,14459.000,1.000
21.368,4.597,9.119,17.165,5.009,-5.152,-2.698,-2.634,-0.115,0.760,-0.531,1.953,1.282,-0.336,80.000,14460.000,1.000
21.082,5.097,8.756,18.159,6.021,-1.849,-2.527,-3.200,-0.114,0.760,-0.532,1.862,1.160,-0.397,80.000,14461.000,1.000
21.129,6.056,8.880,20.398,7.831,1.898,-2.300,-3.375,-0.115,0.759,-0.532,1.556,1.190,-0.366,80.000,14462.000,1.000
22.312,7.902,10.042,23.754,10.261,5.652,-2.195,-3.275,-0.115,0.761,-0.534,1.465,1.190,-0.427,80.000,14463.000,1.000
24.760,10.700,12.341,26.630,12.718,8.954,-2.351,-3.083,-0.115,0.761,-0.534,1.312,1.038,-0.458,80.000,14464.000,1.000
27.667,13.904,15.165,27.179,14.448,11.431,-2.667,-2.762,-0.114,0.761,-0.531,1.282,1.007,-0.336,80.000,14465.000,1.000
29.807,16.421,17.358,24.603,14.802,12.569,-3.052,-2.311,-0.114,0.760,-0.531,1.099,1.099,-0.275,80.000,14466.000,1.000
30.317,17.193,17.915,19.696,13.554,11.803,-3.591,-2.008,-0.113,0.762,-0.532,1.099,1.038,-0.183,80.000,14467.000,1.000
29.161,15.886,16.684,14.536,11.114,9.004,-4.312,-2.144,-0.114,0.760,-0.532,0.977,1.099,-0.153,80.000,14468.000,1.000
26.947,12.963,14.356,11.179,8.327,4.753,-4.940,-2.713,-0.112,0.760,-0.531,0.854,1.038,-0.122,80.000,14469.000,1.000
24.510,9.311,11.906,10.210,6.071,0.174,-4.938,-3.465,-0.113,0.759,-0.532,0.732,1.007,-0.061,80.000,14470.000,1.000
22.686,5.946,10.116,10.658,4.918,-3.500,-3.844,-4.182,-0.112,0.756,-0.533,0.671,1.007,-0.061,80.000,14471.000,1.000
22.046,3.714,9.292,11.261,4.939,-5.457,-1.684,-4.746,-0.111,0.754,-0.532,0.610,1.007,-0.061,80.000,14472.000,1.000
22.697,2.938,9.283,11.664,5.745,-5.648,0.946,-4.905,-0.113,0.754,-0.531,0.519,1.068,0.000,80.000,14473.000,1.000
24.537,3.412,9.883,12.433,6.777,-4.650,3.222,-4.240,-0.112,0.754,-0.528,0.519,1.038,0.000,80.000,14474.000,1.000
27.643,4.784,11.167,14.257,7.619,-3.113,4.537,-2.516,-0.113,0.755,-0.528,0.519,1.038,-0.031,80.000,14475.000,1.000
32.149,6.956,13.390,17.411,8.208,-1.278,4.803,0.100,-0.113,0.755,-0.529,0.458,1.007,-0.061,80.000,14476.000,1.000
37.868,10.105,16.595,21.570,8.793,1.022,4.452,3.193,-0.112,0.755,-0.528,0.366,0.977,-0.092,80.000,14477.000,1.000
44.339,14.334,20.446,25.875,9.652,3.962,4.131,6.316,-0.111,0.755,-0.531,0.366,0.885,-0.153,80.000,14478.000,1.000
51.253,19.377,24.464,29.599,10.838,7.367,4.248,9.095,-0.110,0.752,-0.529,0.336,0.946,-0.122,80.000,14479.000,1.000
58.431,24.562,28.237,32.715,12.100,10.691,4.732,11.232,-0.110,0.753,-0.531,0.458,0.946,-0.214,80.000,14480.000,1.000
65.341,29.014,31.314,35.398,13.001,13.324,5.147,12.429,-0.111,0.755,-0.530,0.366,0.977,-0.336,80.000,14481.000,1.000
71.174,32.096,33.213,37.271,13.219,14.958,5.017,12.407,-0.113,0.758,-0.528,0.336,0.916,-0.305,80.000,14482.000,1.000
75.512,33.752,33.776,37.537,12.836,15.706,4.166,11.077,-0.111,0.755,-0.527,0.336,0.885,-0.366,80.000,14483.000,1.000
78.406,34.279,33.296,35.728,12.251,15.897,2.847,8.676,-0.112,0.756,-0.529,0.244,0.885,-0.549,80.000,14484.000,1.000
79.886,33.955,32.205,32.240,11.828,15.865,1.587,5.737,-0.113,0.755,-0.529,0.244,0.854,-0.519,80.000,14485.000,1.000
80.017,33.178,30.944,28.362,11.771,15.969,0.855,2.949,-0.114,0.758,-0.527,0.214,0.824,-0.580,80.000,14486.000,1.000
79.262,32.611,30.003,25.676,12.173,16.574,0.883,0.872,-0.115,0.758,-0.526,0.183,0.702,-0.641,80.000,14487.000,1.000
78.062,32.633,29.602,24.977,12.880,17.643,1.618,-0.318,-0.112,0.759,-0.524,0.214,0.732,-0.824,80.000,14488.000,1.000
76.300,32.848,29.367,25.682,13.403,18.502,2.669,-0.797,-0.113,0.760,-0.528,0.061,0.763,-0.763,80.000,14489.000,1.000
73.682,32.449,28.666,26.539,13.225,18.285,3.432,-0.941,-0.113,0.760,-0.530,0.000,0.671,-0.763,80.000,14490.000,1.000
70.433,30.888,27.164,26.836,12.132,16.597,3.421,-1.243,-0.112,0.761,-0.529,-0.031,0.732,-0.641,80.000,14491.000,1.000
67.162,28.121,24.924,26.669,10.214,13.776,2.509,-2.117,-0.112,0.759,-0.529,-0.092,0.763,-0.702,80.000,14492.000,1.000
64.047,24.460,22.102,25.923,7.709,10.587,0.920,-3.618,-0.112,0.761,-0.528,-0.183,0.793,-0.580,80.000,14493.000,1.000
60.655,20.481,18.916,23.901,5.029,7.747,-0.838,-5.274,-0.114,0.759,-0.525,-0.122,0.763,-0.702,80.000,14494.000,1.000
56.691,16.999,15.916,20.582,2.868,5.702,-2.125,-6.212,-0.115,0.758,-0.524,-0.214,0.641,-0.641,80.000,14495.000,1.000
52.362,14.727,13.780,17.286,1.914,4.568,-2.586,-5.730,-0.116,0.757,-0.529,-0.061,0.732,-0.549,80.000,14496.000,1.000
48.012,13.862,12.839,15.725,2.393,4.161,-2.442,-3.915,-0.115,0.758,-0.529,-0.092,0.671,-0.488,80.000,14497.000,1.000
43.906,14.129,13.049,17.023,4.067,4.192,-2.184,-1.578,-0.114,0.759,-0.527,-0.244,0.763,-0.519,80.000,14498.000,1.000
40.233,15.013,14.068,20.912,6.435,4.435,-2.070,0.369,-0.114,0.758,-0.526,-0.244,0.732,-0.427,80.000,14499.000,1.000
36.973,15.743,15.068,25.092,8.678,4.626,-1.998,1.330,-0.115,0.758,-0.525,-0.153,0.702,-0.366,80.000,14500.000,1.000
33.775,15.531,15.013,26.461,9.841,4.404,-1.692,1.136,-0.115,0.758,-0.528,-0.183,0.763,-0.275,80.000,14501.000,1.000
30.119,14.133,13.431,23.736,9.450,3.539,-0.983,0.151,-0.115,0.758,-0.529,-0.214,0.732,-0.244,80.000,14502.000,1.000
25.747,12.008,10.717,18.459,7.855,2.128,0.033,-0.841,-0.115,0.757,-0.527,-0.244,0.763,-0.214,80.000,14503.000,1.000
21.095,9.883,7.780,13.583,5.967,0.504,1.133,-1.067,-0.113,0.755,-0.527,-0.122,0.793,-0.183,80.000,14504.000,1.000
16.956,8.078,5.432,11.322,4.568,-1.165,2.124,-0.256,-0.113,0.756,-0.526,0.000,0.854,-0.214,80.000,14505.000,1.000
13.577,6.179,3.824,11.735,3.759,-3.083,2.777,1.130,-0.115,0.756,-0.526,0.092,0.854,-0.153,80.000,14506.000,1.000
10.672,3.663,2.562,12.999,3.084,-5.408,2.830,2.213,-0.113,0.756,-0.528,0.183,0.885,-0.153,80.000,14507.000,1.000
8.356,0.866,1.458,13.274,2.132,-7.838,2.149,2.344,-0.114,0.755,-0.525,0.244,0.854,-0.092,80.000,14508.000,1.000
7.219,-1.133,0.825,12.028,0.847,-9.921,0.780,1.453,-0.113,0.753,-0.525,0.397,0.824,-0.092,80.000,14509.000,1.000
7.191,-1.736,0.855,9.577,-0.625,-11.528,-1.110,-0.127,-0.113,0.753,-0.526,0.549,0.916,-0.031,80.000,14510.000,1.000
7.191,-1.446,1.202,6.440,-2.017,-12.712,-3.144,-1.908,-0.115,0.755,-0.528,0.763,1.007,0.061,80.000,14511.000,1.000
6.332,-1.052,1.543,3.511,-2.849,-13.271,-4.696,-3.293,-0.115,0.755,-0.525,0.885,1.007,-0.031,80.000,14512.000,1.000
4.647,-0.873,1.945,1.668,-2.736,-12.947,-5.298,-3.790,-0.114,0.754,-0.529,0.854,1.038,-0.061,80.000,14513.000,1.000
2.358,-1.103,2.304,0.747,-1.996,-12.019,-5.211,-3.493,-0.114,0.755,-0.526,0.916,1.038,-0.183,80.000,14514.000,1.000
-0.351,-1.976,2.240,-0.131,-1.446,-11.108,-5.256,-3.136,-0.113,0.756,-0.526,1.007,1.007,-0.183,80.000,14515.000,1.000
-2.700,-3.262,1.813,-1.293,-1.489,-10.363,-6.057,-3.503,-0.114,0.757,-0.523,1.038,1.007,-0.183,80.000,14516.000,1.000
-3.591,-4.215,1.648,-2.358,-1.815,-9.351,-7.597,-4.852,-0.113,0.756,-0.526,1.099,1.068,-0.183,80.000,14517.000,1.000
-2.681,-4.126,2.303,-2.818,-1.784,-7.641,-9.238,-6.636,-0.113,0.754,-0.528,1.068,1.190,-0.153,80.000,14518.000,1.000
-0.585,-2.692,3.872,-2.103,-0.728,-5.148,-9.897,-7.601,-0.112,0.754,-0.529,1.251,1.221,-0.183,80.000,14519.000,1.000
1.905,0.019,6.118,0.268,1.882,-2.051,-8.537,-6.457,-0.111,0.755,-0.528,1.282,1.312,-0.244,80.000,14520.000,1.000
4.373,3.678,8.641,3.948,6.063,1.386,-4.848,-2.833,-0.112,0.755,-0.527,1.373,1.251,-0.092,80.000,14521.000,1.000
6.467,7.670,10.892,7.578,11.039,4.864,0.419,2.292,-0.112,0.754,-0.526,1.343,1.282,-0.153,80.000,14522.000,1.000
7.616,11.236,12.312,9.783,15.572,8.088,5.838,7.169,-0.111,0.753,-0.528,1.373,1.373,-0.122,80.000,14523.000,1.000
7.542,13.854,12.679,10.105,18.720,10.838,10.099,10.284,-0.110,0.754,-0.529,1.495,1.465,-0.092,80.000,14524.000,1.000
6.629,15.424,12.168,8.824,20.209,12.953,12.559,10.916,-0.110,0.755,-0.524,1.648,1.526,-0.061,80.000,14525.000,1.000
5.426,16.106,11.074,6.325,20.250,14.359,13.288,9.143,-0.111,0.753,-0.526,1.678,1.495,-0.122,80.000,14526.000,1.000
4.158,16.110,9.644,2.985,19.225,15.187,12.788,5.636,-0.113,0.751,-0.527,1.709,1.587,-0.092,80.000,14527.000,1.000
3.001,15.611,8.209,-0.428,17.506,15.667,11.675,1.407,-0.111,0.753,-0.531,1.831,1.526,-0.122,80.000,14528.000,1.000
2.398,14.739,7.288,-2.681,15.477,15.880,10.498,-2.470,-0.111,0.753,-0.529,1.923,1.617,-0.122,80.000,14529.000,1.000
2.699,13.570,7.332,-2.855,13.569,15.775,9.687,-5.116,-0.115,0.754,-0.531,2.014,1.526,-0.092,80.000,14530.000,1.000
3.775,12.259,8.407,-1.092,12.194,15.400,9.506,-6.044,-0.114,0.753,-0.529,2.106,1.587,-0.061,80.000,14531.000,1.000
5.242,11.174,10.168,1.500,11.547,14.936,9.973,-5.244,-0.116,0.752,-0.528,2.136,1.587,-0.153,80.000,14532.000,1.000
6.653,10.544,11.834,3.418,11.319,14.382,10.737,-3.253,-0.115,0.753,-0.527,2.167,1.556,-0.183,80.000,14533.000,1.000
7.194,9.944,12.189,3.344,10.681,13.362,11.066,-1.089,-0.114,0.755,-0.529,2.136,1.465,-0.183,80.000,14534.000,1.000
5.758,8.605,10.172,0.748,8.803,11.495,10.211,0.272,-0.113,0.756,-0.530,2.136,1.495,-0.183,80.000,14535.000,1.000
1.956,6.298,5.762,-3.756,5.510,8.912,7.970,0.579,-0.113,0.754,-0.531,2.167,1.465,-0.061,80.000,14536.000,1.000
-2.994,3.727,0.291,-8.352,1.520,6.335,4.938,0.451,-0.112,0.756,-0.530,2.136,1.373,-0.061,80.000,14537.000,1.000
-6.894,2.020,-4.212,-10.508,-1.857,4.714,2.252,0.903,-0.113,0.758,-0.533,2.014,1.404,-0.092,80.000,14538.000,1.000
-8.502,1.743,-6.413,-8.816,-3.657,4.538,0.842,2.499,-0.114,0.758,-0.532,1.953,1.404,-0.092,80.000,14539.000,1.000
-8.606,2.337,-6.730,-4.905,-4.162,5.214,0.661,4.681,-0.115,0.760,-0.531,1.892,1.434,-0.061,80.000,14540.000,1.000
-8.891,2.575,-6.800,-2.473,-4.649,5.369,0.727,6.075,-0.114,0.761,-0.529,1.862,1.465,0.000,80.000,14541.000,1.000
-10.209,1.615,-7.933,-3.924,-6.163,4.036,0.026,5.667,-0.115,0.761,-0.530,1.740,1.495,-0.031,80.000,14542.000,1.000
-12.346,-0.464,-10.321,-8.518,-8.651,1.460,-1.677,3.592,-0.114,0.762,-0.532,1.587,1.373,-0.031,80.000,14543.000,1.000
-14.860,-3.025,-13.453,-13.664,-11.268,-1.351,-3.897,0.798,-0.113,0.760,-0.532,1.526,1.343,0.000,80.000,14544.000,1.000
-17.410,-5.417,-16.653,-17.232,-13.209,-3.559,-6.076,-1.872,-0.115,0.761,-0.532,1.282,1.343,0.031,80.000,14545.000,1.000
-19.545,-7.133,-19.174,-18.558,-14.138,-4.878,-7.951,-4.160,-0.114,0.760,-0.531,1.190,1.312,0.000,80.000,14546.000,1.000
-20.867,-7.901,-20.321,-18.084,-14.142,-5.508,-9.402,-6.135,-0.115,0.760,-0.529,1.068,1.099,0.000,80.000,14547.000,1.000
-21.279,-7.841,-19.734,-16.522,-13.562,-5.996,-10.346,-7.718,-0.113,0.760,-0.530,0.946,1.068,0.092,80.000,14548.000,1.000
-20.581,-7.188,-17.363,-14.248,-12.734,-6.850,-10.826,-8.626,-0.112,0.760,-0.530,0.824,1.038,0.092,80.000,14549.000,1.000
-18.272,-5.910,-13.397,-11.481,-11.842,-8.068,-10.974,-8.729,-0.111,0.757,-0.528,0.641,0.977,0.031,80.000,14550.000,1.000
-14.385,-4.054,-8.592,-8.917,-11.186,-9.271,-10.975,-8.392,-0.113,0.757,-0.531,0.549,0.946,-0.061,80.000,14551.000,1.000
-10.039,-2.250,-4.332,-7.645,-11.294,-10.207,-11.124,-8.389,-0.114,0.759,-0.530,0.366,0.916,-0.031,80.000,14552.000,1.000
-6.557,-1.234,-1.760,-8.216,-12.332,-10.773,-11.614,-9.285,-0.113,0.760,-0.527,0.305,0.916,-0.092,80.000,14553.000,1.000
-4.424,-1.050,-0.983,-10.266,-13.663,-10.782,-12.238,-10.909,-0.113,0.758,-0.526,0.275,0.854,-0.092,80.000,14554.000,1.000
-3.437,-1.156,-1.359,-13.003,-14.373,-10.063,-12.542,-12.501,-0.112,0.756,-0.526,0.214,0.854,-0.092,80.000,14555.000,1.000
-3.244,-1.071,-2.144,-15.369,-13.965,-8.680,-12.172,-13.256,-0.112,0.756,-0.528,0.122,0.763,-0.183,80.000,14556.000,1.000
-3.264,-0.583,-2.600,-15.996,-12.384,-6.851,-11.036,-12.759,-0.111,0.758,-0.528,0.092,0.671,-0.183,80.000,14557.000,1.000
-2.827,0.366,-2.235,-14.401,-9.904,-4.784,-9.359,-11.303,-0.111,0.756,-0.530,-0.031,0.671,-0.244,80.000,14558.000,1.000
-1.975,1.607,-1.430,-12.304,-7.155,-2.650,-7.543,-9.786,-0.112,0.758,-0.531,-0.092,0.671,-0.244,80.000,14559.000,1.000
-1.530,2.863,-1.180,-12.286,-4.789,-0.478,-5.766,-8.896,-0.112,0.756,-0.527,-0.031,0.763,-0.214,80.000,14560.000,1.000
-2.136,4.009,-2.058,-15.096,-3.031,1.879,-3.887,-8.522,-0.114,0.757,-0.528,0.000,0.610,-0.214,80.000,14561.000,1.000
-3.698,4.903,-3.932,-19.222,-1.838,4.371,-1.889,-8.192,-0.112,0.757,-0.531,-0.061,0.610,-0.153,80.000,14562.000,1.000
-5.618,5.172,-6.462,-22.636,-1.321,6.483,-0.167,-7.803,-0.114,0.756,-0.529,-0.153,0.641,-0.122,80.000,14563.000,1.000
-7.321,4.561,-9.307,-24.213,-1.656,7.633,0.809,-7.594,-0.113,0.756,-0.528,-0.092,0.549,-0.092,80.000,14564.000,1.000
-8.522,3.318,-11.948,-23.754,-2.693,7.776,1.011,-7.550,-0.114,0.756,-0.525,-0.061,0.580,-0.183,80.000,14565.000,1.000
-9.121,2.042,-13.796,-21.491,-3.927,7.432,0.883,-7.168,-0.113,0.757,-0.527,-0.153,0.671,-0.214,80.000,14566.000,1.000
-9.214,1.149,-14.649,-18.037,-4.901,7.149,0.798,-5.976,-0.111,0.756,-0.528,-0.153,0.641,-0.244,80.000,14567.000,1.000
-9.212,0.534,-14.826,-14.398,-5.540,7.024,0.687,-4.075,-0.113,0.756,-0.526,-0.092,0.610,-0.305,80.000,14568.000,1.000
-9.458,-0.118,-14.665,-11.281,-5.978,6.816,0.338,-1.966,-0.113,0.758,-0.527,-0.122,0.580,-0.275,80.000,14569.000,1.000
-9.711,-0.807,-14.095,-8.581,-6.147,6.395,-0.119,-0.012,-0.113,0.757,-0.528,-0.183,0.580,-0.336,80.000,14570.000,1.000
-9.519,-1.268,-13.030,-6.268,-5.911,5.799,-0.290,1.659,-0.112,0.758,-0.529,-0.153,0.641,-0.397,80.000,14571.000,1.000
-8.988,-1.429,-11.851,-5.379,-5.538,4.957,-0.039,2.838,-0.113,0.759,-0.527,-0.122,0.610,-0.366,80.000,14572.000,1.000
-8.572,-1.436,-11.010,-6.962,-5.598,3.801,0.345,3.206,-0.112,0.759,-0.526,-0.183,0.641,-0.305,80.000,14573.000,1.000
-8.313,-1.393,-10.479,-10.407,-6.347,2.565,0.556,2.671,-0.115,0.758,-0.529,-0.183,0.641,-0.366,80.000,14574.000,1.000
-7.887,-1.489,-10.036,-13.892,-7.607,1.506,0.548,1.466,-0.114,0.758,-0.524,-0.214,0.702,-0.336,80.000,14575.000,1.000
-7.227,-2.067,-9.698,-16.130,-9.182,0.471,0.302,-0.119,-0.113,0.759,-0.527,-0.214,0.580,-0.305,80.000,14576.000,1.000
-6.681,-3.242,-9.595,-17.269,-11.069,-0.910,-0.410,-2.025,-0.111,0.759,-0.528,-0.214,0.580,-0.336,80.000,14577.000,1.000
-6.610,-4.748,-9.723,-18.293,-13.214,-2.746,-1.834,-4.335,-0.111,0.757,-0.525,-0.183,0.580,-0.305,80.000,14578.000,1.000
-6.948,-6.187,-9.893,-19.656,-15.242,-4.798,-3.912,-6.900,-0.113,0.757,-0.526,-0.183,0.702,-0.275,80.000,14579.000,1.000
-7.216,-7.084,-9.745,-20.696,-16.503,-6.653,-6.161,-9.095,-0.115,0.756,-0.526,-0.183,0.641,-0.244,80.000,14580.000,1.000
-7.001,-6.856,-8.884,-20.436,-16.389,-7.845,-7.758,-10.028,-0.111,0.757,-0.528,-0.092,0.549,-0.153,80.000,14581.000,1.000
-6.186,-5.163,-7.079,-18.576,-14.636,-7.960,-7.890,-9.126,-0.111,0.757,-0.527,-0.092,0.641,-0.122,80.000,14582.000,1.000
-4.629,-2.267,-4.346,-15.550,-11.440,-6.864,-6.275,-6.599,-0.111,0.755,-0.524,0.000,0.671,-0.183,80.000,14583.000,1.000
-2.158,1.078,-0.972,-11.987,-7.334,-4.786,-3.350,-3.306,-0.113,0.755,-0.524,0.092,0.641,-0.183,80.000,14584.000,1.000
0.961,4.089,2.521,-8.364,-2.914,-2.039,0.101,-0.161,-0.114,0.755,-0.524,0.122,0.732,-0.305,80.000,14585.000,1.000
4.097,6.398,5.625,-4.905,1.410,1.199,3.510,2.420,-0.112,0.756,-0.527,0.153,0.824,-0.275,80.000,14586.000,1.000
6.860,8.180,8.085,-1.589,5.520,4.821,6.852,4.707,-0.112,0.758,-0.527,0.214,0.732,-0.244,80.000,14587.000,1.000
9.139,9.820,9.824,1.692,9.503,8.626,10.549,7.297,-0.111,0.757,-0.527,0.366,0.793,-0.305,80.000,14588.000,1.000
10.492,11.339,10.610,4.559,13.292,12.216,14.882,10.384,-0.113,0.757,-0.528,0.519,0.885,-0.305,80.000,14589.000,1.000
10.102,12.204,10.025,5.836,16.381,14.990,19.424,13.413,-0.113,0.757,-0.527,0.549,0.824,-0.275,80.000,14590.000,1.000
7.747,11.845,8.040,4.585,18.130,16.381,23.166,15.596,-0.111,0.756,-0.525,0.549,0.916,-0.305,80.000,14591.000,1.000
4.402,10.342,5.456,1.396,18.318,16.195,25.139,16.532,-0.111,0.758,-0.525,0.641,0.916,-0.275,80.000,14592.000,1.000
1.543,8.456,3.477,-1.888,17.271,14.749,24.851,16.283,-0.112,0.758,-0.525,0.793,0.977,-0.275,80.000,14593.000,1.000
0.107,7.025,2.875,-3.586,15.542,12.667,22.362,15.152,-0.112,0.758,-0.525,0.824,1.007,-0.336,80.000,14594.000,1.000
0.315,6.505,3.639,-3.223,13.582,10.531,18.223,13.463,-0.113,0.758,-0.526,0.793,1.160,-0.305,80.000,14595.000,1.000
2.007,7.028,5.242,-1.534,11.652,8.704,13.296,11.440,-0.113,0.758,-0.530,0.854,1.129,-0.305,80.000,14596.000,1.000
4.772,8.599,7.073,0.356,9.909,7.406,8.426,9.246,-0.113,0.761,-0.528,0.916,1.221,-0.366,80.000,14597.000,1.000
8.048,11.183,8.792,1.922,8.502,6.874,4.207,7.050,-0.112,0.760,-0.524,0.885,1.129,-0.336,80.000,14598.000,1.000
11.396,14.635,10.420,3.462,7.526,7.262,0.914,4.972,-0.113,0.759,-0.525,0.885,1.221,-0.397,80.000,14599.000,1.000
14.515,18.496,12.025,5.133,6.823,8.305,-1.543,2.956,-0.112,0.760,-0.526,0.854,1.282,-0.336,80.000,14600.000,1.000
16.906,21.921,13.363,6.060,5.987,9.323,-3.506,0.822,-0.113,0.760,-0.525,0.885,1.221,-0.336,80.000,14601.000,1.000
17.859,23.957,13.961,5.097,4.743,9.694,-5.232,-1.374,-0.113,0.759,-0.525,0.885,1.343,-0.305,80.000,14602.000,1.000
17.115,24.132,13.590,2.457,3.332,9.274,-6.556,-3.016,-0.115,0.760,-0.524,0.916,1.282,-0.305,80.000,14603.000,1.000
15.366,22.816,12.579,0.152,2.455,8.411,-6.913,-3.124,-0.114,0.759,-0.525,0.854,1.373,-0.397,80.000,14604.000,1.000
13.660,20.859,11.474,0.269,2.631,7.552,-5.893,-1.229,-0.113,0.759,-0.526,0.885,1.312,-0.366,80.000,14605.000,1.000
12.315,18.838,10.387,2.647,3.554,6.827,-3.828,1.938,-0.115,0.760,-0.524,0.793,1.251,-0.458,80.000,14606.000,1.000
10.735,16.781,8.942,4.889,4.346,6.094,-1.673,4.856,-0.116,0.760,-0.524,0.763,1.343,-0.366,80.000,14607.000,1.000
8.267,14.551,6.828,4.678,4.329,5.292,-0.391,6.225,-0.115,0.760,-0.528,0.824,1.404,-0.488,80.000,14608.000,1.000
4.961,12.235,4.195,1.604,3.389,4.511,-0.432,5.654,-0.115,0.760,-0.526,0.793,1.465,-0.458,80.000,14609.000,1.000
1.545,10.127,1.580,-2.875,1.832,3.783,-1.537,3.821,-0.115,0.760,-0.527,0.732,1.312,-0.427,80.000,14610.000,1.000
-1.023,8.539,-0.379,-6.691,0.110,3.018,-2.916,1.988,-0.115,0.760,-0.528,0.824,1.373,-0.427,80.000,14611.000,1.000
-1.910,7.673,-1.223,-8.501,-1.391,2.211,-3.745,1.075,-0.115,0.759,-0.527,0.885,1.251,-0.458,80.000,14612.000,1.000
-0.853,7.538,-0.940,-8.263,-2.442,1.534,-3.566,1.211,-0.115,0.759,-0.526,0.793,1.251,-0.458,80.000,14613.000,1.000
1.439,7.957,0.000,-6.881,-2.931,1.202,-2.353,2.126,-0.115,0.760,-0.525,0.824,1.282,-0.336,80.000,14614.000,1.000
3.586,8.696,0.966,-5.389,-2.827,1.366,-0.384,3.573,-0.115,0.761,-0.524,0.763,1.312,-0.336,80.000,14615.000,1.000
4.463,9.506,1.472,-4.344,-2.210,2.102,2.001,5.386,-0.115,0.760,-0.527,0.793,1.190,-0.275,80.000,14616.000,1.000
3.792,10.073,1.243,-3.793,-1.243,3.332,4.578,7.488,-0.116,0.760,-0.526,0.702,1.190,-0.275,80.000,14617.000,1.000
1.967,10.082,0.196,-3.595,-0.170,4.715,7.059,9.753,-0.118,0.761,-0.524,0.793,1.129,-0.244,80.000,14618.000,1.000
-0.303,9.409,-1.454,-3.630,0.686,5.812,8.961,11.707,-0.117,0.761,-0.524,0.793,1.129,-0.183,80.000,14619.000,1.000
-2.087,8.284,-3.080,-3.878,1.144,6.470,10.027,12.726,-0.116,0.760,-0.528,0.732,1.099,-0.122,80.000,14620.000,1.000
-2.537,7.248,-3.850,-4.456,1.455,6.955,10.608,12.706,-0.114,0.761,-0.529,0.824,1.129,-0.092,80.000,14621.000,1.000
-1.581,6.787,-3.328,-5.599,2.077,7.657,11.267,12.097,-0.113,0.760,-0.526,0.854,1.129,-0.122,80.000,14622.000,1.000
-0.182,6.866,-1.955,-7.685,3.017,8.568,11.984,11.157,-0.115,0.761,-0.523,0.793,1.068,-0.031,80.000,14623.000,1.000
0.458,6.951,-0.762,-10.850,3.666,9.098,12.041,9.652,-0.114,0.760,-0.524,0.763,1.099,-0.061,80.000,14624.000,1.000
0.002,6.546,-0.437,-14.160,3.495,8.595,10.854,7.489,-0.113,0.760,-0.527,0.763,1.068,-0.122,80.000,14625.000,1.000
-0.854,5.594,-0.835,-15.773,2.565,7.004,8.641,5.179,-0.115,0.759,-0.527,0.854,1.099,0.000,80.000,14626.000,1.000
-1.337,4.327,-1.467,-14.578,1.251,4.849,6.164,3.451,-0.116,0.761,-0.525,0.793,1.007,0.000,80.000,14627.000,1.000
-1.305,2.943,-2.095,-11.281,-0.126,2.697,4.113,2.673,-0.116,0.760,-0.524,0.763,1.038,0.061,80.000,14628.000,1.000
-0.938,1.571,-2.614,-7.551,-1.264,0.771,2.753,2.741,-0.115,0.760,-0.526,0.702,1.068,0.061,80.000,14629.000,1.000
-0.327,0.367,-2.734,-4.484,-1.841,-0.988,1.985,3.411,-0.112,0.761,-0.522,0.763,1.160,0.092,80.000,14630.000,1.000
0.496,-0.457,-2.080,-2.066,-1.675,-2.640,1.615,4.566,-0.113,0.761,-0.525,0.732,1.099,0.092,80.000,14631.000,1.000
1.632,-0.643,-0.460,0.258,-0.940,-4.140,1.430,5.997,-0.113,0.760,-0.526,0.732,1.068,0.031,80.000,14632.000,1.000
3.282,-0.111,1.845,2.689,-0.260,-5.433,1.094,7.020,-0.115,0.759,-0.524,0.824,0.977,-0.031,80.000,14633.000,1.000
5.192,0.753,3.916,4.546,-0.485,-6.474,0.175,6.706,-0.114,0.760,-0.523,0.854,1.007,0.000,80.000,14634.000,1.000
6.503,1.341,4.685,4.759,-2.114,-7.083,-1.513,4.609,-0.113,0.760,-0.525,0.946,1.068,-0.092,80.000,14635.000,1.000
6.629,1.487,3.830,2.896,-4.848,-6.951,-3.640,1.106,-0.114,0.758,-0.526,0.946,1.099,-0.061,80.000,14636.000,1.000
5.985,1.666,2.065,-0.391,-7.776,-6.001,-5.559,-2.928,-0.113,0.759,-0.526,0.946,1.129,-0.092,80.000,14637.000,1.000
5.670,2.597,0.668,-3.605,-9.828,-4.547,-6.698,-6.501,-0.114,0.759,-0.523,1.007,1.129,-0.092,80.000,14638.000,1.000
6.472,4.707,0.672,-5.294,-10.133,-2.923,-6.721,-8.783,-0.114,0.759,-0.524,0.977,1.099,-0.092,80.000,14639.000,1.000
8.179,7.801,2.169,-5.132,-8.365,-1.101,-5.574,-9.396,-0.113,0.758,-0.527,1.068,1.129,-0.183,80.000,14640.000,1.000
9.945,11.152,4.355,-3.984,-4.942,1.203,-3.537,-8.486,-0.111,0.757,-0.521,1.129,1.190,-0.153,80.000,14641.000,1.000
11.079,13.930,6.252,-3.011,-0.830,4.130,-1.135,-6.590,-0.111,0.758,-0.523,1.190,1.190,-0.183,80.000,14642.000,1.000
11.297,15.585,7.278,-2.904,2.881,7.417,1.089,-4.488,-0.111,0.759,-0.526,1.282,1.221,-0.244,80.000,14643.000,1.000
10.546,15.890,7.216,-3.869,5.309,10.365,2.627,-2.912,-0.112,0.759,-0.525,1.282,1.282,-0.153,80.000,14644.000,1.000
8.974,14.835,6.084,-5.711,6.029,12.075,3.100,-2.047,-0.112,0.759,-0.523,1.282,1.282,-0.122,80.000,14645.000,1.000
6.900,12.577,4.090,-7.782,5.252,11.900,2.525,-1.442,-0.114,0.757,-0.523,1.251,1.312,-0.122,80.000,14646.000,1.000
4.424,9.284,1.394,-9.621,3.527,9.690,1.187,-0.792,-0.114,0.758,-0.523,1.282,1.251,-0.214,80.000,14647.000,1.000
1.399,5.139,-1.923,-11.444,1.272,5.795,-0.689,-0.480,-0.115,0.756,-0.524,1.282,1.221,-0.244,80.000,14648.000,1.000
-1.899,0.610,-5.356,-13.391,-1.213,0.962,-2.872,-1.001,-0.114,0.758,-0.526,1.343,1.343,-0.214,80.000,14649.000,1.000
-4.502,-3.550,-7.886,-14.807,-3.531,-3.928,-4.944,-2.268,-0.112,0.759,-0.527,1.434,1.312,-0.275,80.000,14650.000,1.000
-5.518,-6.679,-8.701,-14.654,-5.201,-8.129,-6.377,-3.634,-0.111,0.758,-0.526,1.465,1.251,-0.183,80.000,14651.000,1.000
-5.054,-8.546,-7.925,-12.577,-5.922,-11.150,-6.797,-4.391,-0.113,0.757,-0.525,1.556,1.312,-0.244,80.000,14652.000,1.000
-4.179,-9.416,-6.559,-9.557,-5.893,-12.843,-6.307,-4.365,-0.113,0.758,-0.525,1.526,1.343,-0.305,80.000,14653.000,1.000
-3.986,-9.744,-5.688,-7.293,-5.664,-13.282,-5.406,-4.048,-0.113,0.758,-0.528,1.495,1.343,-0.244,80.000,14654.000,1.000
-4.763,-9.693,-5.673,-6.796,-5.551,-12.477,-4.407,-3.929,-0.114,0.760,-0.528,1.526,1.434,-0.122,80.000,14655.000,1.000
-6.022,-9.046,-6.005,-7.662,-5.348,-10.439,-3.163,-3.851,-0.113,0.759,-0.526,1.587,1.465,-0.183,80.000,14656.000,1.000
-6.964,-7.563,-5.851,-8.673,-4.677,-7.472,-1.520,-3.347,-0.113,0.759,-0.524,1.556,1.495,-0.153,80.000,14657.000,1.000
-6.864,-5.328,-4.717,-8.874,-3.474,-4.176,0.219,-2.420,-0.113,0.760,-0.525,1.587,1.495,-0.275,80.000,14658.000,1.000
-5.444,-2.736,-2.702,-8.041,-2.098,-1.236,1.416,-1.639,-0.114,0.760,-0.524,1.495,1.526,-0.244,80.000,14659.000,1.000
-3.105,-0.213,-0.308,-6.527,-1.122,0.777,1.576,-1.586,-0.115,0.760,-0.523,1.495,1.465,-0.336,80.000,14660.000,1.000
-0.563,2.036,1.972,-4.923,-1.003,1.655,0.635,-2.457,-0.113,0.758,-0.525,1.495,1.434,-0.275,80.000,14661.000,1.000
1.765,4.052,3.935,-3.731,-1.796,1.769,-1.044,-4.090,-0.113,0.758,-0.525,1.587,1.373,-0.183,80.000,14662.000,1.000
3.859,5.973,5.629,-3.176,-3.077,1.952,-2.796,-6.070,-0.115,0.757,-0.526,1.526,1.373,-0.153,80.000,14663.000,1.000
5.783,7.935,7.257,-2.996,-3.978,3.097,-3.714,-7.646,-0.115,0.759,-0.529,1.404,1.434,-0.305,80.000,14664.000,1.000
7.562,10.095,9.146,-2.387,-3.441,5.664,-2.908,-7.839,-0.115,0.760,-0.526,1.526,1.404,-0.275,80.000,14665.000,1.000
9.052,12.365,11.380,-0.693,-0.960,9.160,-0.146,-6.129,-0.114,0.759,-0.523,1.434,1.495,-0.275,80.000,14666.000,1.000
9.782,14.075,13.381,1.707,2.705,12.048,3.594,-3.148,-0.114,0.760,-0.523,1.495,1.373,-0.214,80.000,14667.000,1.000
9.269,14.336,14.276,3.645,5.934,12.735,6.551,-0.337,-0.112,0.759,-0.524,1.495,1.373,-0.214,80.000,14668.000,1.000
7.508,12.854,13.633,4.213,7.497,10.876,7.460,1.238,-0.115,0.760,-0.528,1.495,1.434,-0.244,80.000,14669.000,1.000
5.111,10.159,11.705,3.414,7.304,7.506,6.379,1.616,-0.115,0.759,-0.527,1.434,1.404,-0.275,80.000,14670.000,1.000
3.000,7.105,9.164,1.988,6.078,4.025,4.301,1.554,-0.115,0.758,-0.528,1.495,1.465,-0.153,80.000,14671.000,1.000
1.853,4.391,6.761,0.813,4.683,1.401,2.241,1.728,-0.115,0.758,-0.530,1.495,1.343,-0.153,80.000,14672.000,1.000
1.749,2.545,5.062,0.572,3.746,0.121,0.802,2.373,-0.114,0.758,-0.527,1.495,1.312,-0.153,80.000,14673.000,1.000
2.348,1.982,4.248,1.527,3.550,0.296,0.249,3.382,-0.113,0.759,-0.527,1.404,1.373,-0.153,80.000,14674.000,1.000
3.264,2.640,3.998,3.278,3.979,1.497,0.509,4.451,-0.115,0.759,-0.528,1.465,1.343,-0.061,80.000,14675.000,1.000
4.121,3.714,3.680,4.853,4.523,2.740,1.091,5.224,-0.114,0.756,-0.528,1.495,1.343,-0.061,80.000,14676.000,1.000
4.531,4.161,2.911,5.214,4.599,3.058,1.422,5.516,-0.115,0.757,-0.527,1.404,1.343,-0.061,80.000,14677.000,1.000
4.362,3.463,1.950,4.025,3.999,2.160,1.355,5.421,-0.115,0.759,-0.526,1.373,1.343,-0.061,80.000,14678.000,1.000
4.019,1.858,1.433,2.022,3.017,0.476,1.234,5.204,-0.115,0.757,-0.524,1.434,1.221,-0.122,80.000,14679.000,1.000
4.110,0.055,1.704,0.434,2.183,-1.234,1.524,5.196,-0.114,0.756,-0.524,1.526,1.221,0.000,80.000,14680.000,1.000
4.724,-1.359,2.383,-0.053,1.891,-2.342,2.439,5.719,-0.112,0.756,-0.526,1.648,1.251,0.031,80.000,14681.000,1.000
5.364,-2.357,2.701,0.303,2.188,-2.688,3.783,6.783,-0.113,0.754,-0.528,1.556,1.221,-0.122,80.000,14682.000,1.000
5.783,-3.205,2.361,1.037,2.921,-2.486,5.111,7.970,-0.113,0.752,-0.527,1.556,1.251,-0.031,80.000,14683.000,1.000
6.390,-3.916,1.822,2.185,4.013,-1.982,6.132,8.834,-0.113,0.752,-0.525,1.770,1.343,-0.031,80.000,14684.000,1.000
7.461,-4.337,1.578,3.790,5.422,-1.287,6.914,9.292,-0.112,0.751,-0.527,1.892,1.282,-0.092,80.000,14685.000,1.000
8.605,-4.601,1.505,5.196,6.955,-0.475,7.660,9.491,-0.112,0.751,-0.526,1.984,1.373,0.000,80.000,14686.000,1.000
9.439,-5.135,1.154,5.516,8.338,0.398,8.517,9.525,-0.112,0.751,-0.527,2.045,1.373,0.000,80.000,14687.000,1.000
10.050,-6.192,0.459,4.594,9.544,1.479,9.674,9.480,-0.112,0.753,-0.528,2.014,1.495,-0.031,80.000,14688.000,1.000
10.392,-7.589,-0.093,3.200,10.882,3.188,11.397,9.630,-0.111,0.753,-0.530,1.923,1.373,-0.153,80.000,14689.000,1.000
9.913,-9.097,-0.120,2.279,12.505,5.648,13.614,10.170,-0.110,0.755,-0.527,2.045,1.404,-0.153,80.000,14690.000,1.000
8.237,-10.876,-0.019,2.129,13.854,8.067,15.528,10.771,-0.110,0.756,-0.529,2.106,1.526,-0.153,80.000,14691.000,1.000
5.855,-13.115,-0.554,2.682,14.085,9.268,16.157,10.908,-0.111,0.756,-0.533,2.167,1.434,-0.214,80.000,14692.000,1.000
3.709,-15.471,-1.901,4.115,12.984,8.845,15.301,10.534,-0.112,0.758,-0.531,2.167,1.465,-0.153,80.000,14693.000,1.000
2.312,-17.248,-3.531,6.271,11.065,7.372,13.612,10.003,-0.112,0.760,-0.528,2.106,1.343,-0.214,80.000,14694.000,1.000
1.732,-17.892,-4.672,8.258,8.998,5.703,11.839,9.549,-0.114,0.762,-0.532,2.106,1.312,-0.214,80.000,14695.000,1.000
2.055,-17.199,-4.672,9.271,7.239,4.352,10.322,9.074,-0.115,0.763,-0.531,1.984,1.343,-0.275,80.000,14696.000,1.000
3.290,-15.358,-3.346,9.131,5.932,3.343,8.974,8.293,-0.114,0.764,-0.529,1.892,1.312,-0.244,80.000,14697.000,1.000
5.097,-12.884,-1.090,8.208,4.971,2.456,7.496,6.999,-0.115,0.764,-0.528,1.862,1.251,-0.366,80.000,14698.000,1.000
7.036,-10.334,1.454,7.335,4.198,1.646,5.655,5.172,-0.115,0.763,-0.530,1.709,1.221,-0.336,80.000,14699.000,1.000
8.935,-7.924,3.828,7.405,3.607,1.310,3.562,2.946,-0.115,0.762,-0.528,1.556,1.129,-0.305,80.000,14700.000,1.000
10.814,-5.358,5.943,8.858,3.432,2.055,1.813,0.775,-0.115,0.764,-0.530,1.495,1.099,-0.397,80.000,14701.000,1.000
12.435,-2.382,7.827,11.464,3.895,4.044,1.135,-0.582,-0.112,0.762,-0.532,1.404,1.129,-0.336,80.000,14702.000,1.000
13.234,0.451,9.239,14.250,4.750,6.573,1.670,-0.749,-0.113,0.761,-0.532,1.373,1.129,-0.275,80.000,14703.000,1.000
12.935,2.032,9.756,15.805,5.327,8.548,2.749,-0.208,-0.114,0.760,-0.531,1.190,1.129,-0.244,80.000,14704.000,1.000
11.918,1.768,9.194,15.209,5.163,9.394,3.547,0.211,-0.109,0.760,-0.532,1.099,1.068,-0.244,80.000,14705.000,1.000
10.629,-0.002,7.659,12.673,4.390,9.346,3.782,0.004,-0.109,0.759,-0.530,1.129,1.160,-0.183,80.000,14706.000,1.000
8.960,-2.549,5.322,9.246,3.513,8.964,3.693,-0.947,-0.112,0.758,-0.527,1.038,1.160,-0.092,80.000,14707.000,1.000
6.511,-5.298,2.381,6.118,2.993,8.573,3.661,-2.379,-0.112,0.757,-0.526,1.038,1.190,-0.122,80.000,14708.000,1.000
3.102,-7.945,-0.888,3.776,2.943,8.091,3.963,-3.592,-0.113,0.759,-0.528,1.007,1.099,0.000,80.000,14709.000,1.000
-1.053,-10.263,-4.110,1.785,3.125,7.263,4.716,-3.674,-0.113,0.756,-0.529,1.038,1.190,-0.031,80.000,14710.000,1.000
