EEG 1,EEG 2,EEG 3,EEG 4,EEG 5,EEG 6,EEG 7,EEG 8,Accelerometer X,Accelerometer Y,Accelerometer Z,Gyroscope X,Gyroscope Y,Gyroscope Z,Battery Level,Counter,Validation Indicator
-28.728,-41.224,-31.771,-24.185,-25.093,-32.805,-15.973,-16.912,-0.095,0.795,-0.485,0.732,1.465,0.000,80.000,4097.000,1.000
-26.778,-38.068,-30.278,-21.686,-22.556,-31.363,-15.131,-16.989,-0.095,0.795,-0.487,0.702,1.556,-0.031,80.000,4098.000,1.000
-25.134,-34.407,-28.811,-20.047,-20.877,-30.018,-14.506,-16.962,-0.095,0.794,-0.486,0.732,1.556,0.000,80.000,4099.000,1.000
-23.590,-31.034,-27.514,-19.625,-20.721,-29.472,-14.781,-17.311,-0.095,0.795,-0.484,0.793,1.556,0.000,80.000,4100.000,1.000
-21.769,-28.344,-26.388,-20.031,-21.784,-29.721,-15.924,-18.058,-0.096,0.794,-0.485,0.671,1.556,-0.031,80.000,4101.000,1.000
-19.857,-26.483,-25.573,-20.747,-23.155,-30.176,-17.298,-18.886,-0.095,0.792,-0.486,0.702,1.526,-0.031,80.000,4102.000,1.000
-18.386,-25.459,-25.241,-21.006,-23.915,-30.140,-18.185,-19.482,-0.094,0.793,-0.483,0.671,1.434,-0.092,80.000,4103.000,1.000
-17.564,-25.096,-25.379,-20.093,-23.519,-29.265,-18.201,-19.589,-0.094,0.793,-0.487,0.702,1.465,-0.061,80.000,4104.000,1.000
-17.439,-25.183,-25.965,-18.326,-22.070,-27.784,-17.417,-18.985,-0.094,0.792,-0.488,0.702,1.404,-0.031,80.000,4105.000,1.000
-18.371,-25.728,-27.117,-16.838,-20.303,-26.372,-16.228,-17.567,-0.094,0.793,-0.489,0.763,1.404,-0.031,80.000,4106.000,1.000
-20.563,-26.796,-28.807,-16.294,-19.100,-25.595,-15.067,-15.536,-0.094,0.792,-0.489,0.793,1.434,-0.031,80.000,4107.000,1.000
-23.327,-28.161,-30.638,-16.625,-18.926,-25.462,-14.196,-13.519,-0.095,0.792,-0.486,0.854,1.404,-0.031,80.000,4108.000,1.000
-25.527,-29.431,-32.092,-17.528,-19.659,-25.597,-13.714,-12.200,-0.096,0.789,-0.488,0.916,1.465,-0.061,80.000,4109.000,1.000
-26.638,-30.412,-32.870,-18.495,-20.775,-25.690,-13.648,-11.798,-0.094,0.790,-0.487,0.885,1.404,-0.031,80.000,4110.000,1.000
-26.848,-31.120,-32.948,-18.726,-21.676,-25.666,-13.965,-12.037,-0.093,0.791,-0.489,1.007,1.343,-0.031,80.000,4111.000,1.000
-26.348,-31.490,-32.379,-17.487,-21.891,-25.608,-14.573,-12.428,-0.094,0.792,-0.485,1.038,1.343,-0.061,80.000,4112.000,1.000
-25.184,-31.388,-31.257,-15.048,-21.276,-25.632,-15.384,-12.679,-0.094,0.792,-0.483,1.038,1.282,-0.061,80.000,4113.000,1.000
-23.756,-30.908,-29.874,-13.164,-20.246,-25.787,-16.401,-13.112,-0.094,0.793,-0.482,1.007,1.221,-0.183,80.000,4114.000,1.000
-22.797,-30.336,-28.662,-13.646,-19.519,-26.011,-17.549,-14.283,-0.093,0.795,-0.484,1.007,1.221,-0.214,80.000,4115.000,1.000
-22.616,-29.776,-27.854,-16.573,-19.433,-26.191,-18.485,-16.151,-0.094,0.793,-0.487,1.038,1.282,-0.305,80.000,4116.000,1.000
-22.733,-29.006,-27.249,-20.281,-19.629,-26.243,-18.809,-17.907,-0.096,0.793,-0.485,1.099,1.221,-0.183,80.000,4117.000,1.000
-22.292,-27.629,-26.262,-22.626,-19.390,-26.062,-18.414,-18.521,-0.095,0.793,-0.484,1.007,1.282,-0.214,80.000,4118.000,1.000
-20.734,-25.431,-24.384,-22.544,-18.315,-25.491,-17.522,-17.633,-0.095,0.792,-0.487,1.038,1.099,-0.122,80.000,4119.000,1.000
-18.185,-22.742,-21.759,-20.835,-16.760,-24.478,-16.484,-16.030,-0.095,0.794,-0.486,1.068,1.068,-0.214,80.000,4120.000,1.000
-15.401,-20.343,-19.172,-19.207,-15.584,-23.251,-15.638,-14.901,-0.095,0.795,-0.487,1.068,1.099,-0.153,80.000,4121.000,1.000
-13.503,-19.021,-17.454,-18.758,-15.531,-22.317,-15.303,-14.846,-0.094,0.795,-0.486,1.068,1.068,-0.183,80.000,4122.000,1.000
-13.416,-19.239,-16.929,-19.373,-16.789,-22.199,-15.715,-15.760,-0.094,0.796,-0.487,1.038,1.038,-0.214,80.000,4123.000,1.000
-15.079,-20.831,-17.211,-20.016,-18.850,-23.089,-16.893,-17.196,-0.097,0.795,-0.487,1.007,0.916,-0.183,80.000,4124.000,1.000
-17.294,-22.861,-17.449,-19.522,-20.751,-24.734,-18.577,-18.602,-0.096,0.795,-0.487,0.946,0.916,-0.061,80.000,4125.000,1.000
-18.737,-24.113,-16.908,-17.602,-21.636,-26.613,-20.294,-19.519,-0.096,0.794,-0.483,0.885,0.946,-0.092,80.000,4126.000,1.000
-18.889,-23.867,-15.387,-15.076,-21.188,-28.045,-21.495,-19.679,-0.095,0.794,-0.486,0.824,0.946,0.000,80.000,4127.000,1.000
-17.762,-22.051,-13.030,-12.788,-19.522,-28.257,-21.715,-18.898,-0.094,0.793,-0.487,0.793,0.763,-0.031,80.000,4128.000,1.000
-15.408,-19.014,-10.052,-10.817,-16.926,-26.706,-20.705,-17.130,-0.094,0.793,-0.487,0.793,0.885,-0.031,80.000,4129.000,1.000
-12.291,-15.604,-6.889,-9.224,-13.932,-23.636,-18.646,-14.749,-0.095,0.793,-0.488,0.793,0.824,-0.061,80.000,4130.000,1.000
-9.599,-13.164,-4.289,-8.599,-11.379,-20.240,-16.278,-12.500,-0.096,0.794,-0.486,0.885,0.885,0.031,80.000,4131.000,1.000
-8.389,-12.863,-2.856,-9.239,-9.990,-18.043,-14.516,-10.972,-0.096,0.793,-0.485,0.824,0.824,0.031,80.000,4132.000,1.000
-8.549,-14.805,-2.542,-10.540,-9.764,-17.818,-13.672,-10.152,-0.095,0.792,-0.487,0.763,0.763,0.092,80.000,4133.000,1.000
-9.190,-17.896,-2.853,-11.631,-9.969,-18.995,-13.185,-9.572,-0.096,0.792,-0.486,0.763,0.732,0.061,80.000,4134.000,1.000
-9.905,-20.784,-3.546,-12.262,-9.889,-20.265,-12.336,-8.905,-0.096,0.793,-0.488,0.732,0.854,0.122,80.000,4135.000,1.000
-11.014,-22.837,-4.825,-12.844,-9.380,-20.688,-11.032,-8.320,-0.095,0.793,-0.485,0.610,0.793,0.122,80.000,4136.000,1.000
-12.678,-24.019,-6.748,-13.694,-8.572,-20.031,-9.641,-8.162,-0.095,0.792,-0.485,0.671,0.793,0.153,80.000,4137.000,1.000
-14.533,-24.307,-8.861,-14.394,-7.448,-18.462,-8.444,-8.384,-0.094,0.793,-0.482,0.671,0.732,0.153,80.000,4138.000,1.000
-16.260,-23.718,-10.600,-14.050,-6.034,-16.372,-7.566,-8.493,-0.094,0.792,-0.484,0.671,0.793,0.214,80.000,4139.000,1.000
-17.850,-22.493,-11.748,-12.449,-4.696,-14.230,-7.142,-8.043,-0.092,0.793,-0.484,0.702,0.793,0.214,80.000,4140.000,1.000
-19.230,-20.924,-12.444,-10.613,-3.919,-12.293,-7.152,-7.014,-0.089,0.793,-0.486,0.763,0.702,0.153,80.000,4141.000,1.000
-20.069,-19.128,-12.877,-9.621,-3.796,-10.466,-7.171,-5.619,-0.090,0.793,-0.486,0.793,0.885,0.153,80.000,4142.000,1.000
-20.203,-17.240,-13.131,-9.648,-4.025,-8.656,-6.653,-4.062,-0.092,0.793,-0.487,0.763,0.885,0.061,80.000,4143.000,1.000
-20.061,-15.745,-13.369,-10.681,-4.461,-7.211,-5.599,-2.755,-0.093,0.793,-0.486,0.763,0.946,0.061,80.000,4144.000,1.000
-20.267,-15.225,-13.849,-12.819,-5.289,-6.697,-4.628,-2.297,-0.091,0.793,-0.483,0.671,0.977,-0.031,80.000,4145.000,1.000
-20.931,-15.736,-14.588,-15.413,-6.527,-7.238,-4.386,-2.901,-0.091,0.794,-0.487,0.702,0.916,0.000,80.000,4146.000,1.000
-21.716,-16.654,-15.243,-16.982,-7.720,-8.290,-4.997,-4.055,-0.090,0.794,-0.490,0.732,1.007,-0.092,80.000,4147.000,1.000
-22.426,-17.146,-15.456,-16.478,-8.240,-9.030,-5.989,-4.912,-0.091,0.792,-0.486,0.671,1.038,-0.153,80.000,4148.000,1.000
-23.114,-16.786,-15.247,-14.419,-7.834,-8.955,-6.677,-4.997,-0.093,0.792,-0.485,0.732,1.068,-0.153,80.000,4149.000,1.000
-23.796,-15.848,-15.040,-12.510,-6.829,-8.174,-6.621,-4.428,-0.093,0.794,-0.487,0.854,1.160,-0.092,80.000,4150.000,1.000
-24.338,-14.960,-15.194,-11.980,-5.738,-7.100,-5.652,-3.408,-0.093,0.794,-0.488,0.732,1.221,-0.153,80.000,4151.000,1.000
-24.513,-14.500,-15.557,-12.451,-4.806,-6.038,-3.735,-1.886,-0.091,0.794,-0.486,0.641,1.251,-0.275,80.000,4152.000,1.000
-23.958,-14.360,-15.614,-12.684,-4.098,-5.248,-1.167,-0.015,-0.091,0.794,-0.488,0.671,1.282,-0.305,80.000,4153.000,1.000
-22.256,-14.258,-15.056,-12.150,-3.794,-5.128,1.277,1.403,-0.091,0.795,-0.484,0.671,1.221,-0.366,80.000,4154.000,1.000
-19.508,-14.240,-14.190,-11.537,-4.233,-6.034,2.758,1.478,-0.091,0.794,-0.485,0.702,1.190,-0.427,80.000,4155.000,1.000
-16.772,-14.731,-13.801,-11.736,-5.605,-7.899,3.012,0.189,-0.092,0.796,-0.485,0.702,1.312,-0.397,80.000,4156.000,1.000
-15.343,-15.954,-14.422,-12.528,-7.555,-10.121,2.453,-1.529,-0.093,0.794,-0.486,0.641,1.251,-0.397,80.000,4157.000,1.000
-15.592,-17.515,-15.871,-13.029,-9.324,-11.900,1.632,-2.778,-0.094,0.793,-0.486,0.519,1.190,-0.427,80.000,4158.000,1.000
-16.915,-18.714,-17.629,-13.242,-10.412,-12.689,0.747,-3.578,-0.093,0.794,-0.486,0.610,1.282,-0.458,80.000,4159.000,1.000
-18.548,-18.992,-19.304,-14.009,-10.866,-12.309,-0.247,-4.512,-0.095,0.795,-0.484,0.549,1.282,-0.488,80.000,4160.000,1.000
-20.011,-18.144,-20.657,-15.869,-10.966,-10.842,-1.264,-5.834,-0.095,0.795,-0.481,0.641,1.251,-0.458,80.000,4161.000,1.000
-20.928,-16.419,-21.437,-18.525,-10.857,-8.643,-2.007,-7.238,-0.094,0.794,-0.484,0.702,1.221,-0.427,80.000,4162.000,1.000
-20.813,-14.308,-21.274,-20.763,-10.416,-6.331,-2.219,-8.174,-0.094,0.795,-0.482,0.671,1.251,-0.397,80.000,4163.000,1.000
-19.305,-12.122,-19.794,-21.047,-9.395,-4.496,-1.867,-8.169,-0.097,0.797,-0.484,0.549,1.251,-0.458,80.000,4164.000,1.000
-16.534,-9.907,-16.898,-18.526,-7.670,-3.399,-1.076,-7.012,-0.096,0.796,-0.485,0.549,1.343,-0.488,80.000,4165.000,1.000
-13.037,-7.654,-12.893,-13.244,-5.372,-3.090,-0.113,-4.822,-0.096,0.796,-0.481,0.488,1.282,-0.305,80.000,4166.000,1.000
-9.588,-5.598,-8.559,-6.185,-2.985,-3.708,0.499,-2.196,-0.094,0.794,-0.481,0.427,1.282,-0.336,80.000,4167.000,1.000
-7.236,-4.306,-5.084,0.412,-1.313,-5.408,0.153,-0.288,-0.095,0.795,-0.483,0.458,1.251,-0.458,80.000,4168.000,1.000
-6.728,-4.083,-3.274,4.397,-0.842,-7.745,-1.167,0.103,-0.094,0.795,-0.484,0.488,1.160,-0.336,80.000,4169.000,1.000
-7.488,-4.313,-2.662,5.711,-1.072,-9.473,-2.519,-0.383,-0.094,0.792,-0.485,0.427,1.221,-0.214,80.000,4170.000,1.000
-7.994,-4.001,-2.107,5.321,-1.120,-9.571,-2.865,-0.560,-0.093,0.794,-0.484,0.427,1.221,-0.214,80.000,4171.000,1.000
-7.462,-2.996,-1.259,3.112,-0.892,-8.325,-2.162,-0.385,-0.094,0.795,-0.481,0.519,1.129,-0.214,80.000,4172.000,1.000
-6.495,-2.121,-0.731,-1.123,-1.051,-6.989,-1.269,-0.711,-0.094,0.794,-0.483,0.488,1.251,-0.153,80.000,4173.000,1.000
-5.977,-2.220,-1.030,-6.033,-2.140,-6.683,-1.060,-2.029,-0.094,0.795,-0.485,0.458,1.190,-0.153,80.000,4174.000,1.000
-5.964,-3.435,-1.903,-9.591,-4.119,-7.726,-1.797,-4.099,-0.095,0.794,-0.483,0.488,1.160,-0.061,80.000,4175.000,1.000
-5.814,-5.318,-2.616,-10.689,-6.443,-9.604,-3.045,-6.228,-0.094,0.794,-0.485,0.488,1.190,-0.031,80.000,4176.000,1.000
-4.957,-7.322,-2.554,-9.379,-8.371,-11.437,-4.006,-7.586,-0.094,0.793,-0.485,0.519,1.221,-0.122,80.000,4177.000,1.000
-3.335,-9.143,-1.643,-6.464,-9.398,-12.650,-4.115,-7.685,-0.094,0.792,-0.483,0.702,1.343,0.000,80.000,4178.000,1.000
-1.396,-10.747,-0.474,-3.272,-9.614,-13.329,-3.478,-6.832,-0.092,0.794,-0.482,0.732,1.251,-0.031,80.000,4179.000,1.000
0.048,-12.247,-0.011,-1.198,-9.581,-13.996,-2.746,-5.926,-0.093,0.795,-0.484,0.549,1.312,-0.061,80.000,4180.000,1.000
0.202,-13.703,-0.873,-0.882,-9.748,-15.014,-2.504,-5.692,-0.092,0.794,-0.486,0.549,1.343,-0.183,80.000,4181.000,1.000
-0.984,-14.821,-2.683,-1.674,-9.955,-16.102,-2.760,-6.111,-0.092,0.794,-0.485,0.580,1.251,-0.153,80.000,4182.000,1.000
-2.526,-14.965,-4.254,-2.256,-9.671,-16.528,-3.089,-6.692,-0.093,0.794,-0.483,0.641,1.129,-0.153,80.000,4183.000,1.000
-3.353,-13.823,-4.704,-2.034,-8.868,-15.978,-3.414,-7.319,-0.092,0.796,-0.483,0.610,1.373,-0.122,80.000,4184.000,1.000
-3.360,-11.912,-4.169,-1.468,-8.327,-15.015,-4.282,-8.381,-0.092,0.795,-0.486,0.641,1.312,-0.092,80.000,4185.000,1.000
-3.050,-10.052,-3.223,-1.145,-8.784,-14.432,-6.047,-9.856,-0.093,0.797,-0.485,0.610,1.221,-0.092,80.000,4186.000,1.000
-2.438,-8.488,-2.043,-1.258,-10.094,-14.399,-8.204,-11.047,-0.093,0.795,-0.480,0.610,1.343,-0.122,80.000,4187.000,1.000
-0.983,-6.881,-0.431,-1.568,-11.441,-14.435,-9.911,-11.514,-0.094,0.796,-0.482,0.732,1.251,-0.092,80.000,4188.000,1.000
1.384,-4.994,1.610,-1.441,-12.046,-13.932,-10.677,-11.451,-0.095,0.797,-0.484,0.763,1.160,-0.092,80.000,4189.000,1.000
3.608,-3.135,3.480,-0.645,-11.582,-12.577,-10.279,-11.016,-0.094,0.794,-0.483,0.702,1.099,-0.122,80.000,4190.000,1.000
4.299,-1.896,4.281,0.037,-10.124,-10.488,-8.513,-9.900,-0.094,0.796,-0.482,0.671,1.129,-0.183,80.000,4191.000,1.000
2.907,-1.640,3.498,-0.256,-8.001,-8.219,-5.524,-7.724,-0.093,0.796,-0.484,0.671,1.160,-0.153,80.000,4192.000,1.000
-0.268,-2.416,1.216,-1.609,-5.867,-6.645,-2.175,-4.730,-0.094,0.797,-0.484,0.732,1.099,-0.153,80.000,4193.000,1.000
-4.595,-4.076,-2.122,-3.898,-4.594,-6.416,0.390,-1.974,-0.094,0.796,-0.484,0.671,1.129,-0.305,80.000,4194.000,1.000
-9.027,-6.100,-5.726,-7.027,-4.621,-7.292,1.659,-0.505,-0.094,0.796,-0.482,0.610,1.129,-0.275,80.000,4195.000,1.000
-12.077,-7.613,-8.497,-10.204,-5.499,-8.217,2.084,-0.393,-0.094,0.794,-0.482,0.671,1.099,-0.183,80.000,4196.000,1.000
-12.693,-7.944,-9.591,-12.006,-6.366,-8.168,2.452,-0.812,-0.094,0.795,-0.484,0.702,1.129,-0.214,80.000,4197.000,1.000
-11.147,-7.084,-8.984,-11.484,-6.723,-6.873,3.063,-0.919,-0.094,0.796,-0.483,0.671,1.099,-0.122,80.000,4198.000,1.000
-8.706,-5.473,-7.302,-8.822,-6.516,-4.722,3.673,-0.415,-0.094,0.794,-0.479,0.763,1.160,-0.183,80.000,4199.000,1.000
-6.467,-3.503,-5.164,-5.163,-5.653,-2.219,4.065,0.520,-0.094,0.793,-0.479,0.732,1.190,-0.183,80.000,4200.000,1.000
-4.770,-1.386,-2.893,-2.039,-3.895,0.311,4.391,1.518,-0.096,0.795,-0.478,0.732,1.190,-0.153,80.000,4201.000,1.000
-3.496,0.762,-0.675,-0.374,-1.124,2.712,5.007,2.435,-0.094,0.798,-0.479,0.732,1.068,-0.214,80.000,4202.000,1.000
-2.313,2.962,1.422,0.287,2.520,4.969,6.164,3.620,-0.095,0.798,-0.483,0.732,1.007,-0.275,80.000,4203.000,1.000
-0.723,5.348,3.463,1.175,6.627,7.127,7.801,5.425,-0.095,0.797,-0.483,0.610,1.007,-0.214,80.000,4204.000,1.000
1.355,7.863,5.293,2.742,10.454,9.193,9.593,7.497,-0.096,0.799,-0.481,0.671,1.038,-0.061,80.000,4205.000,1.000
3.030,10.011,6.280,4.022,13.177,11.154,11.344,9.127,-0.096,0.798,-0.480,0.732,0.977,-0.061,80.000,4206.000,1.000
3.231,11.236,5.830,3.898,14.515,13.098,13.284,10.173,-0.096,0.797,-0.480,0.610,0.977,0.000,80.000,4207.000,1.000
2.097,11.563,4.144,2.621,14.983,15.104,15.794,11.156,-0.096,0.797,-0.482,0.580,1.007,0.031,80.000,4208.000,1.000
0.811,11.498,2.116,1.618,15.355,16.935,18.829,12.619,-0.095,0.798,-0.482,0.580,0.977,0.031,80.000,4209.000,1.000
0.167,11.385,0.608,2.283,15.985,18.043,21.787,14.726,-0.095,0.799,-0.483,0.458,0.977,0.031,80.000,4210.000,1.000
-0.014,11.215,-0.025,5.175,16.704,18.060,23.925,17.307,-0.097,0.799,-0.483,0.519,0.946,0.000,80.000,4211.000,1.000
-0.067,10.966,0.106,9.708,17.178,17.132,24.803,19.972,-0.094,0.799,-0.482,0.488,0.977,-0.031,80.000,4212.000,1.000
0.214,10.697,0.721,14.340,17.186,15.784,24.463,22.165,-0.094,0.798,-0.482,0.458,0.916,0.122,80.000,4213.000,1.000
1.167,10.326,1.515,17.169,16.585,14.554,23.237,23.189,-0.093,0.796,-0.483,0.580,0.916,0.214,80.000,4214.000,1.000
2.602,9.576,2.038,16.490,15.153,13.631,21.291,22.283,-0.094,0.796,-0.487,0.519,1.007,0.183,80.000,4215.000,1.000
4.158,8.385,1.895,11.732,12.851,12.837,18.552,19.088,-0.092,0.795,-0.483,0.580,1.068,0.183,80.000,4216.000,1.000
5.972,7.223,1.281,4.643,10.261,12.003,15.263,14.308,-0.093,0.796,-0.484,0.671,1.068,0.214,80.000,4217.000,1.000
8.400,6.731,0.984,-1.104,8.420,11.219,12.273,9.651,-0.093,0.797,-0.483,0.610,1.099,0.244,80.000,4218.000,1.000
11.493,7.260,1.815,-2.364,8.122,10.762,10.544,6.860,-0.093,0.798,-0.483,0.671,1.129,0.275,80.000,4219.000,1.000
15.160,8.833,4.130,1.243,9.471,10.892,10.477,6.717,-0.092,0.796,-0.483,0.671,1.099,0.244,80.000,4220.000,1.000
19.296,11.103,7.620,7.419,11.909,11.602,11.633,8.706,-0.093,0.794,-0.479,0.732,1.129,0.336,80.000,4221.000,1.000
23.350,13.235,11.373,13.080,14.489,12.517,12.989,11.335,-0.093,0.795,-0.478,0.824,1.129,0.275,80.000,4222.000,1.000
26.403,14.397,14.488,16.340,16.439,13.305,13.701,13.089,-0.093,0.796,-0.477,0.885,1.160,0.214,80.000,4223.000,1.000
28.154,14.686,16.916,17.505,17.801,14.220,13.900,13.606,-0.093,0.796,-0.479,0.885,1.190,0.122,80.000,4224.000,1.000
29.359,15.144,19.374,18.366,19.305,15.889,14.471,13.751,-0.092,0.794,-0.480,0.977,1.190,0.153,80.000,4225.000,1.000
30.902,16.635,22.334,20.423,21.399,18.380,15.886,14.451,-0.093,0.792,-0.479,0.977,1.160,0.092,80.000,4226.000,1.000
32.902,19.044,25.457,23.735,23.670,20.784,17.545,15.811,-0.089,0.792,-0.478,0.977,1.221,-0.061,80.000,4227.000,1.000
35.050,21.727,28.105,27.115,25.339,21.932,18.399,17.278,-0.090,0.791,-0.479,1.007,1.099,-0.092,80.000,4228.000,1.000
37.288,24.241,30.016,29.062,26.032,21.390,17.958,18.289,-0.089,0.791,-0.479,1.160,1.251,-0.183,80.000,4229.000,1.000
39.614,26.377,31.280,28.831,25.916,19.695,16.552,18.658,-0.092,0.790,-0.481,1.282,1.312,-0.214,80.000,4230.000,1.000
41.611,27.926,31.990,27.165,25.344,17.872,14.861,18.602,-0.091,0.791,-0.477,1.343,1.251,-0.214,80.000,4231.000,1.000
42.702,28.709,32.158,25.701,24.573,16.748,13.376,18.431,-0.090,0.792,-0.481,1.495,1.312,-0.275,80.000,4232.000,1.000
42.686,28.751,31.777,25.243,23.648,16.585,12.195,18.070,-0.091,0.792,-0.481,1.556,1.312,-0.366,80.000,4233.000,1.000
41.660,28.243,30.858,25.145,22.432,17.170,11.194,17.090,-0.092,0.792,-0.481,1.617,1.251,-0.458,80.000,4234.000,1.000
39.515,27.244,29.384,24.276,20.729,18.005,10.215,15.240,-0.093,0.792,-0.482,1.617,1.373,-0.549,80.000,4235.000,1.000
36.088,25.696,27.427,22.112,18.499,18.535,9.190,12.757,-0.093,0.793,-0.483,1.770,1.343,-0.580,80.000,4236.000,1.000
31.985,23.849,25.385,19.202,16.101,18.512,8.222,10.264,-0.092,0.795,-0.482,1.770,1.312,-0.549,80.000,4237.000,1.000
28.498,22.210,23.764,16.580,14.096,18.041,7.450,8.410,-0.093,0.798,-0.482,1.831,1.465,-0.671,80.000,4238.000,1.000
26.417,20.911,22.662,14.942,12.780,17.238,6.837,7.617,-0.096,0.800,-0.485,1.862,1.404,-0.671,80.000,4239.000,1.000
25.332,19.509,21.677,14.459,12.052,16.043,6.233,8.028,-0.097,0.802,-0.486,1.770,1.343,-0.671,80.000,4240.000,1.000
24.148,17.475,20.177,14.601,11.496,14.329,5.483,9.227,-0.095,0.802,-0.483,1.678,1.251,-0.671,80.000,4241.000,1.000
21.991,14.770,17.720,14.372,10.614,12.088,4.482,10.307,-0.097,0.802,-0.485,1.526,1.221,-0.732,80.000,4242.000,1.000
18.510,11.841,14.333,13.291,9.182,9.504,3.261,10.719,-0.096,0.801,-0.484,1.434,1.129,-0.702,80.000,4243.000,1.000
13.571,9.043,10.361,11.525,7.262,6.773,1.853,10.439,-0.095,0.800,-0.486,1.404,1.068,-0.641,80.000,4244.000,1.000
7.398,6.435,6.311,9.289,5.027,4.022,0.119,9.297,-0.094,0.801,-0.485,1.465,1.099,-0.549,80.000,4245.000,1.000
1.016,4.250,2.928,7.019,2.848,1.542,-2.046,7.096,-0.096,0.800,-0.482,1.434,1.068,-0.488,80.000,4246.000,1.000
-4.302,2.911,0.882,5.662,1.163,-0.224,-4.529,4.243,-0.097,0.800,-0.485,1.373,0.977,-0.458,80.000,4247.000,1.000
-8.051,2.469,0.210,5.933,0.062,-1.021,-7.100,1.563,-0.096,0.802,-0.485,1.404,0.977,-0.336,80.000,4248.000,1.000
-10.419,2.647,0.439,7.334,-0.666,-0.826,-9.434,-0.365,-0.096,0.800,-0.483,1.312,0.977,-0.275,80.000,4249.000,1.000
-11.591,3.416,1.169,8.395,-1.080,0.384,-11.074,-1.513,-0.094,0.801,-0.483,1.190,0.946,-0.214,80.000,4250.000,1.000
-11.819,4.974,2.243,8.156,-0.977,2.627,-11.578,-2.271,-0.096,0.800,-0.485,1.160,0.854,-0.153,80.000,4251.000,1.000
-11.814,7.179,3.479,6.973,-0.254,5.524,-10.871,-3.120,-0.096,0.799,-0.482,1.129,0.793,-0.092,80.000,4252.000,1.000
-12.404,9.317,4.505,5.500,0.766,8.027,-9.529,-4.410,-0.096,0.799,-0.482,1.038,0.824,-0.061,80.000,4253.000,1.000
-13.802,10.473,4.951,3.752,1.505,8.889,-8.474,-6.257,-0.096,0.798,-0.483,1.038,0.793,0.000,80.000,4254.000,1.000
-15.507,10.176,4.749,1.760,1.656,7.572,-8.271,-8.396,-0.099,0.799,-0.482,1.038,0.793,0.092,80.000,4255.000,1.000
-16.945,8.705,4.241,0.293,1.431,4.621,-8.811,-10.194,-0.095,0.798,-0.485,0.946,0.763,0.122,80.000,4256.000,1.000
-17.780,6.966,4.096,0.425,1.349,1.244,-9.609,-11.039,-0.096,0.798,-0.480,0.854,0.702,0.122,80.000,4257.000,1.000
-17.685,6.004,4.936,2.485,1.777,-1.460,-10.268,-10.863,-0.094,0.796,-0.481,0.702,0.610,0.153,80.000,4258.000,1.000
-16.616,6.232,6.599,5.313,2.516,-2.981,-10.654,-10.343,-0.095,0.798,-0.481,0.732,0.549,0.122,80.000,4259.000,1.000
-15.271,7.076,7.966,6.829,2.866,-3.352,-10.719,-10.317,-0.095,0.797,-0.482,0.641,0.549,0.000,80.000,4260.000,1.000
-14.507,7.550,7.931,5.827,2.228,-2.818,-10.348,-11.052,-0.093,0.796,-0.481,0.610,0.580,0.031,80.000,4261.000,1.000
-14.222,7.149,6.456,3.067,0.647,-1.626,-9.449,-12.336,-0.094,0.797,-0.480,0.549,0.641,0.061,80.000,4262.000,1.000
-13.490,6.045,4.442,0.301,-1.236,-0.109,-8.166,-13.966,-0.093,0.796,-0.479,0.610,0.671,0.000,80.000,4263.000,1.000
-11.840,4.529,2.729,-1.844,-2.812,1.100,-7.076,-15.887,-0.093,0.797,-0.482,0.549,0.549,-0.031,80.000,4264.000,1.000
-9.661,2.793,1.682,-4.355,-3.798,1.328,-6.885,-17.882,-0.093,0.799,-0.483,0.610,0.580,-0.244,80.000,4265.000,1.000
-7.232,1.324,1.633,-7.627,-3.852,0.546,-7.633,-19.224,-0.092,0.798,-0.481,0.458,0.580,-0.214,80.000,4266.000,1.000
-4.207,0.780,2.942,-9.881,-2.549,-0.549,-8.494,-19.079,-0.091,0.797,-0.482,0.458,0.610,-0.122,80.000,4267.000,1.000
-0.401,1.231,5.342,-8.792,-0.064,-1.193,-8.576,-17.437,-0.092,0.796,-0.484,0.488,0.610,-0.153,80.000,4268.000,1.000
3.412,1.874,7.615,-4.189,2.475,-1.186,-7.778,-15.289,-0.093,0.795,-0.485,0.610,0.702,-0.275,80.000,4269.000,1.000
6.052,1.708,8.280,1.489,3.600,-0.921,-6.827,-13.927,-0.094,0.796,-0.479,0.580,0.763,-0.275,80.000,4270.000,1.000
7.258,0.416,6.829,5.463,2.638,-0.801,-6.529,-14.171,-0.094,0.798,-0.479,0.488,0.702,-0.305,80.000,4271.000,1.000
8.010,-1.400,4.205,6.772,0.248,-0.727,-7.082,-16.010,-0.094,0.796,-0.480,0.580,0.763,-0.214,80.000,4272.000,1.000
9.657,-2.541,2.102,6.242,-2.119,-0.115,-7.992,-18.774,-0.094,0.795,-0.482,0.610,0.763,-0.214,80.000,4273.000,1.000
13.209,-1.638,2.102,5.457,-2.992,1.832,-8.312,-21.508,-0.094,0.795,-0.482,0.610,0.854,-0.244,80.000,4274.000,1.000
19.147,2.359,5.125,5.968,-1.338,5.791,-7.025,-23.234,-0.095,0.796,-0.481,0.580,0.946,-0.214,80.000,4275.000,1.000
26.946,9.457,10.839,8.369,2.951,11.812,-3.693,-23.266,-0.094,0.794,-0.482,0.702,0.916,-0.214,80.000,4276.000,1.000
34.767,18.193,17.527,11.808,8.726,18.980,1.103,-21.512,-0.095,0.795,-0.478,0.854,0.946,-0.214,80.000,4277.000,1.000
40.472,26.296,23.163,15.149,14.213,25.729,6.162,-18.288,-0.094,0.795,-0.481,0.793,0.946,-0.122,80.000,4278.000,1.000
43.072,31.941,26.666,18.339,18.166,30.561,10.508,-13.967,-0.095,0.795,-0.478,0.793,1.038,-0.122,80.000,4279.000,1.000
42.733,34.294,27.810,21.532,20.253,32.517,13.779,-9.049,-0.094,0.793,-0.482,0.824,0.885,-0.031,80.000,4280.000,1.000
39.787,33.227,26.503,23.403,20.673,31.428,16.071,-4.232,-0.095,0.796,-0.479,0.824,1.007,-0.031,80.000,4281.000,1.000
34.580,29.163,22.901,22.107,19.901,28.012,17.612,0.034,-0.095,0.796,-0.481,0.854,1.007,0.122,80.000,4282.000,1.000
28.125,23.229,18.006,18.012,18.636,23.549,18.515,3.853,-0.096,0.794,-0.481,1.038,0.946,0.031,80.000,4283.000,1.000
22.026,17.009,13.457,14.061,17.507,19.219,18.719,7.544,-0.094,0.794,-0.484,1.007,0.977,0.122,80.000,4284.000,1.000
17.429,11.879,10.549,12.894,16.641,15.644,18.105,11.089,-0.096,0.794,-0.483,1.160,0.977,0.214,80.000,4285.000,1.000
14.318,8.476,9.510,14.174,15.543,12.803,16.519,13.807,-0.095,0.794,-0.484,1.190,1.007,0.183,80.000,4286.000,1.000
11.902,6.598,9.590,15.168,13.496,10.219,13.790,14.399,-0.095,0.792,-0.482,1.343,1.099,0.153,80.000,4287.000,1.000
9.388,5.521,9.712,13.608,10.260,7.446,10.050,11.920,-0.094,0.792,-0.481,1.343,0.977,0.183,80.000,4288.000,1.000
6.232,4.492,9.066,9.518,6.414,4.558,6.018,7.098,-0.095,0.794,-0.481,1.373,1.007,0.214,80.000,4289.000,1.000
2.233,3.230,7.500,4.701,3.044,2.178,2.741,2.202,-0.095,0.795,-0.481,1.495,1.099,0.183,80.000,4290.000,1.000
-2.136,2.274,5.673,1.227,1.243,1.108,1.026,-0.632,-0.094,0.793,-0.482,1.526,1.129,0.244,80.000,4291.000,1.000
-5.841,2.622,4.679,0.422,1.702,1.753,0.995,-0.672,-0.093,0.794,-0.481,1.678,1.129,0.153,80.000,4292.000,1.000
-8.173,4.663,5.182,2.524,4.284,3.659,2.068,1.537,-0.093,0.796,-0.482,1.709,1.160,0.183,80.000,4293.000,1.000
-9.321,7.631,6.939,6.606,7.916,5.699,3.398,4.882,-0.091,0.797,-0.484,1.709,1.129,0.214,80.000,4294.000,1.000
-9.882,10.343,9.130,10.852,11.143,6.868,4.361,8.112,-0.094,0.797,-0.485,1.831,1.221,0.214,80.000,4295.000,1.000
-10.208,12.103,10.911,13.281,12.905,6.809,4.658,10.033,-0.093,0.798,-0.483,1.831,1.251,0.214,80.000,4296.000,1.000
-10.601,12.640,11.620,12.665,12.855,5.641,4.175,9.903,-0.094,0.797,-0.481,1.770,1.160,0.122,80.000,4297.000,1.000
-11.607,11.735,10.959,9.274,11.241,3.692,2.930,7.917,-0.093,0.797,-0.483,1.770,1.282,0.092,80.000,4298.000,1.000
-13.570,9.432,9.189,4.658,8.637,1.412,1.053,4.984,-0.090,0.794,-0.484,1.678,1.312,0.153,80.000,4299.000,1.000
-16.161,6.321,6.923,0.228,5.572,-0.783,-1.400,1.875,-0.089,0.795,-0.486,1.678,1.404,0.153,80.000,4300.000,1.000
-18.665,3.285,4.697,-3.626,2.378,-2.590,-4.400,-0.979,-0.092,0.792,-0.485,1.740,1.434,0.153,80.000,4301.000,1.000
-20.544,1.018,2.863,-6.877,-0.649,-3.680,-7.589,-2.963,-0.091,0.793,-0.481,1.770,1.526,0.122,80.000,4302.000,1.000
-21.503,-0.144,1.720,-9.171,-3.126,-3.702,-10.260,-3.423,-0.092,0.792,-0.487,1.801,1.526,0.061,80.000,4303.000,1.000
-21.187,0.022,1.587,-10.022,-4.618,-2.488,-11.775,-2.418,-0.093,0.791,-0.483,1.831,1.465,0.061,80.000,4304.000,1.000
-19.355,1.692,2.627,-9.142,-4.766,-0.193,-11.910,-0.698,-0.091,0.789,-0.483,1.953,1.465,0.092,80.000,4305.000,1.000
-16.491,4.687,4.575,-6.601,-3.517,2.726,-11.016,1.041,-0.089,0.788,-0.485,2.014,1.526,0.031,80.000,4306.000,1.000
-13.635,8.435,6.896,-2.813,-1.173,5.745,-9.805,2.477,-0.091,0.787,-0.484,2.136,1.587,-0.031,80.000,4307.000,1.000
-11.510,12.272,9.202,1.480,1.751,8.498,-8.910,3.297,-0.094,0.787,-0.487,2.228,1.648,-0.061,80.000,4308.000,1.000
-10.361,15.534,11.214,5.118,4.583,10.611,-8.707,2.969,-0.094,0.790,-0.485,2.258,1.617,-0.061,80.000,4309.000,1.000
-10.452,17.575,12.514,6.896,6.667,11.596,-9.282,1.244,-0.094,0.790,-0.484,2.411,1.648,-0.183,80.000,4310.000,1.000
-11.958,18.089,12.715,6.456,7.732,11.162,-10.318,-1.320,-0.092,0.791,-0.482,2.441,1.495,-0.092,80.000,4311.000,1.000
-14.457,17.314,11.729,4.598,8.002,9.526,-11.249,-3.658,-0.093,0.791,-0.486,2.411,1.465,-0.122,80.000,4312.000,1.000
-17.239,15.620,9.637,2.438,7.820,7.266,-11.723,-4.940,-0.095,0.791,-0.486,2.502,1.404,-0.244,80.000,4313.000,1.000
-20.037,13.027,6.496,0.512,7.301,5.015,-11.812,-4.975,-0.095,0.794,-0.489,2.502,1.373,-0.244,80.000,4314.000,1.000
-22.822,9.555,2.612,-1.055,6.500,3.406,-11.655,-4.098,-0.094,0.796,-0.487,2.380,1.434,-0.214,80.000,4315.000,1.000
-24.896,5.973,-1.035,-1.665,5.836,3.029,-11.048,-2.711,-0.094,0.798,-0.487,2.319,1.404,-0.183,80.000,4316.000,1.000
-24.925,3.618,-3.098,-0.323,5.944,4.016,-9.629,-0.973,-0.092,0.799,-0.486,2.228,1.221,-0.214,80.000,4317.000,1.000
-22.255,3.225,-2.925,2.946,6.911,5.637,-7.526,0.938,-0.093,0.800,-0.489,2.075,1.312,-0.153,80.000,4318.000,1.000
-17.734,4.234,-1.120,6.562,8.005,6.673,-5.471,2.530,-0.093,0.798,-0.488,2.014,1.312,-0.092,80.000,4319.000,1.000
-12.837,5.502,1.126,8.850,8.408,6.374,-4.120,3.404,-0.093,0.799,-0.488,1.892,1.404,0.031,80.000,4320.000,1.000
-8.308,6.428,3.107,9.813,8.003,4.960,-3.483,3.885,-0.093,0.798,-0.490,1.801,1.221,0.000,80.000,4321.000,1.000
-4.054,7.124,4.910,11.058,7.302,3.236,-3.090,4.864,-0.094,0.797,-0.490,1.740,1.312,0.000,80.000,4322.000,1.000
-0.261,7.700,6.648,13.406,6.652,1.944,-2.616,6.614,-0.094,0.798,-0.488,1.709,1.343,0.000,80.000,4323.000,1.000
2.139,7.916,7.784,15.222,5.799,1.497,-2.167,8.106,-0.095,0.796,-0.490,1.648,1.312,0.122,80.000,4324.000,1.000
2.475,7.674,7.660,14.326,4.462,2.097,-1.931,8.163,-0.094,0.794,-0.490,1.495,1.312,0.061,80.000,4325.000,1.000
1.204,7.422,6.420,10.581,2.990,3.791,-1.770,6.886,-0.096,0.795,-0.486,1.404,1.190,0.244,80.000,4326.000,1.000
-0.367,7.872,5.107,5.915,2.230,6.407,-1.241,5.646,-0.095,0.795,-0.486,1.282,1.190,0.122,80.000,4327.000,1.000
-0.873,9.407,4.927,2.791,2.921,9.518,0.138,5.964,-0.095,0.795,-0.492,1.282,1.160,0.092,80.000,4328.000,1.000
0.374,11.618,6.331,2.577,5.136,12.522,2.552,8.366,-0.094,0.794,-0.491,1.221,1.129,0.092,80.000,4329.000,1.000
2.980,13.444,8.750,4.905,8.215,14.901,5.632,12.177,-0.094,0.792,-0.491,1.251,1.099,0.092,80.000,4330.000,1.000
5.689,13.862,11.129,8.328,11.136,16.430,8.468,16.094,-0.091,0.792,-0.489,1.099,1.068,0.244,80.000,4331.000,1.000
7.284,12.529,12.584,11.106,12.948,17.091,10.027,18.765,-0.093,0.793,-0.487,1.099,1.038,0.214,80.000,4332.000,1.000
7.629,10.099,12.885,11.916,13.184,16.948,9.822,19.367,-0.094,0.792,-0.487,1.099,1.007,0.092,80.000,4333.000,1.000
7.673,7.834,12.519,10.713,12.036,15.973,8.138,18.057,-0.093,0.792,-0.490,0.977,1.007,0.061,80.000,4334.000,1.000
8.235,6.518,12.124,8.565,9.998,13.806,5.558,15.721,-0.094,0.792,-0.488,1.038,0.946,0.000,80.000,4335.000,1.000
9.237,5.872,11.915,6.661,7.530,9.992,2.575,13.354,-0.094,0.792,-0.486,1.129,0.854,-0.031,80.000,4336.000,1.000
10.306,5.226,11.837,6.076,5.229,4.764,-0.275,11.778,-0.093,0.791,-0.487,1.099,0.854,-0.061,80.000,4337.000,1.000
11.457,4.412,11.971,7.959,3.930,-0.564,-2.239,11.598,-0.092,0.793,-0.486,1.099,0.763,-0.092,80.000,4338.000,1.000
12.508,3.600,12.250,12.277,4.081,-4.405,-2.725,12.826,-0.093,0.792,-0.487,1.068,0.793,-0.061,80.000,4339.000,1.000
12.436,2.625,11.927,16.229,5.091,-6.086,-1.891,14.488,-0.094,0.793,-0.491,1.068,0.793,-0.153,80.000,4340.000,1.000
10.420,1.295,10.294,16.187,5.991,-5.890,-0.392,15.412,-0.092,0.791,-0.490,1.038,0.732,-0.183,80.000,4341.000,1.000
7.252,0.178,7.905,11.790,6.639,-4.214,1.439,15.549,-0.093,0.791,-0.488,1.099,0.824,-0.153,80.000,4342.000,1.000
4.682,0.147,6.062,6.160,7.419,-1.499,3.497,15.678,-0.092,0.792,-0.488,0.916,0.763,-0.305,80.000,4343.000,1.000
3.680,1.188,5.201,2.084,8.018,1.180,5.173,15.929,-0.092,0.792,-0.486,0.916,0.671,-0.275,80.000,4344.000,1.000
4.034,2.292,4.564,-0.207,7.451,2.393,5.502,15.482,-0.093,0.791,-0.488,0.885,0.641,-0.336,80.000,4345.000,1.000
5.074,2.329,3.258,-1.641,5.261,1.413,4.055,13.684,-0.095,0.793,-0.487,0.854,0.580,-0.275,80.000,4346.000,1.000
6.074,0.785,1.042,-2.385,2.087,-1.231,1.314,10.937,-0.094,0.791,-0.489,0.885,0.549,-0.244,80.000,4347.000,1.000
6.386,-2.034,-1.711,-1.921,-0.902,-4.199,-1.774,8.338,-0.095,0.792,-0.490,0.824,0.610,-0.244,80.000,4348.000,1.000
5.899,-5.187,-4.366,-0.241,-2.852,-6.258,-4.396,6.637,-0.094,0.793,-0.489,0.854,0.549,-0.305,80.000,4349.000,1.000
5.306,-7.503,-6.269,1.823,-3.571,-6.888,-6.127,5.820,-0.094,0.792,-0.488,0.793,0.488,-0.275,80.000,4350.000,1.000
5.461,-8.082,-6.977,3.325,-3.399,-6.283,-6.934,5.542,-0.095,0.794,-0.489,0.854,0.488,-0.244,80.000,4351.000,1.000
6.462,-6.766,-6.565,3.747,-2.878,-4.995,-7.093,5.523,-0.092,0.793,-0.488,0.793,0.336,-0.244,80.000,4352.000,1.000
7.735,-4.133,-5.592,3.034,-2.386,-3.582,-6.926,5.579,-0.094,0.793,-0.485,0.824,0.305,-0.092,80.000,4353.000,1.000
8.838,-1.088,-4.627,1.642,-1.942,-2.416,-6.580,5.605,-0.093,0.794,-0.485,0.702,0.305,-0.122,80.000,4354.000,1.000
9.646,1.450,-3.979,0.492,-1.381,-1.714,-6.124,5.642,-0.096,0.794,-0.488,0.580,0.305,-0.122,80.000,4355.000,1.000
9.850,2.766,-3.860,0.388,-0.618,-1.601,-5.660,5.951,-0.095,0.794,-0.488,0.549,0.275,-0.092,80.000,4356.000,1.000
8.933,2.693,-4.496,1.079,0.228,-2.058,-5.212,6.903,-0.094,0.793,-0.486,0.488,0.122,-0.092,80.000,4357.000,1.000
6.870,1.819,-5.874,1.308,0.867,-2.843,-4.731,8.517,-0.094,0.793,-0.489,0.488,0.153,-0.092,80.000,4358.000,1.000
4.389,1.118,-7.521,0.266,0.944,-3.617,-4.349,10.034,-0.095,0.794,-0.490,0.519,0.153,-0.092,80.000,4359.000,1.000
2.248,1.234,-8.821,-1.551,0.232,-4.090,-4.379,10.276,-0.093,0.794,-0.488,0.397,0.183,-0.092,80.000,4360.000,1.000
0.768,2.268,-9.363,-2.923,-1.014,-3.986,-4.862,8.751,-0.094,0.794,-0.484,0.366,0.153,-0.153,80.000,4361.000,1.000
0.289,4.091,-8.869,-2.777,-2.022,-3.101,-5.379,6.157,-0.095,0.794,-0.483,0.336,0.214,0.031,80.000,4362.000,1.000
1.232,6.362,-7.281,-1.174,-2.139,-1.559,-5.544,3.491,-0.094,0.793,-0.484,0.336,0.031,0.031,80.000,4363.000,1.000
3.341,8.452,-5.066,0.296,-1.469,0.181,-5.406,1.111,-0.094,0.794,-0.487,0.366,0.031,0.000,80.000,4364.000,1.000
5.642,9.849,-2.935,0.148,-0.568,1.733,-5.133,-0.870,-0.092,0.795,-0.486,0.275,0.122,0.000,80.000,4365.000,1.000
7.552,10.581,-1.069,-0.777,0.318,3.061,-4.535,-1.817,-0.093,0.795,-0.484,0.305,0.183,-0.031,80.000,4366.000,1.000
9.303,10.942,0.900,0.161,1.328,4.213,-3.211,-0.925,-0.090,0.796,-0.488,0.275,0.275,0.061,80.000,4367.000,1.000
10.888,10.893,2.994,3.959,2.409,5.039,-0.991,1.848,-0.090,0.796,-0.488,0.244,0.275,0.122,80.000,4368.000,1.000
11.488,10.090,4.542,8.301,3.180,5.425,1.958,5.574,-0.090,0.794,-0.488,0.305,0.305,0.000,80.000,4369.000,1.000
10.630,8.533,5.023,10.258,3.492,5.625,5.287,8.970,-0.092,0.796,-0.486,0.305,0.427,-0.122,80.000,4370.000,1.000
9.226,6.871,4.804,9.298,3.651,6.041,8.537,11.055,-0.092,0.794,-0.485,0.336,0.458,-0.092,80.000,4371.000,1.000
8.840,5.978,4.872,7.114,4.050,6.867,11.256,11.546,-0.091,0.794,-0.485,0.275,0.488,-0.122,80.000,4372.000,1.000
10.290,6.402,6.177,5.992,4.942,8.117,13.249,11.018,-0.092,0.793,-0.487,0.244,0.488,-0.122,80.000,4373.000,1.000
13.397,8.183,9.162,7.507,6.575,9.712,14.629,10.627,-0.090,0.795,-0.485,0.244,0.580,-0.153,80.000,4374.000,1.000
17.567,10.971,13.588,11.617,9.144,11.363,15.489,11.359,-0.091,0.795,-0.487,0.275,0.702,-0.214,80.000,4375.000,1.000
21.905,14.095,18.571,16.765,12.543,12.645,15.750,13.444,-0.090,0.794,-0.486,0.153,0.793,-0.275,80.000,4376.000,1.000
25.152,16.599,22.857,21.257,16.205,13.262,15.348,16.314,-0.091,0.795,-0.484,0.336,0.824,-0.366,80.000,4377.000,1.000
26.467,17.708,25.449,24.444,19.317,13.213,14.375,18.917,-0.091,0.794,-0.481,0.305,0.824,-0.305,80.000,4378.000,1.000
26.230,17.436,26.157,26.289,21.264,12.689,13.070,20.330,-0.090,0.793,-0.486,0.397,0.916,-0.397,80.000,4379.000,1.000
25.475,16.451,25.465,26.290,21.880,11.788,11.723,20.302,-0.093,0.794,-0.487,0.397,0.946,-0.519,80.000,4380.000,1.000
24.797,15.472,24.035,23.764,21.384,10.471,10.592,19.260,-0.091,0.795,-0.485,0.366,1.007,-0.549,80.000,4381.000,1.000
24.278,14.968,22.498,19.234,20.304,8.941,9.917,18.014,-0.091,0.793,-0.485,0.488,1.099,-0.549,80.000,4382.000,1.000
24.064,15.121,21.380,14.586,19.267,7.706,9.829,17.349,-0.090,0.794,-0.484,0.549,1.190,-0.580,80.000,4383.000,1.000
24.301,15.652,20.729,11.622,18.547,7.065,10.113,17.502,-0.094,0.796,-0.484,0.580,1.099,-0.671,80.000,4384.000,1.000
24.613,15.792,19.908,10.979,17.852,6.785,10.286,17.998,-0.094,0.793,-0.482,0.580,1.160,-0.671,80.000,4385.000,1.000
24.251,14.842,18.070,12.041,16.687,6.444,10.026,18.142,-0.092,0.792,-0.485,0.610,1.221,-0.641,80.000,4386.000,1.000
22.837,12.857,14.893,13.041,14.812,5.880,9.421,17.462,-0.093,0.793,-0.481,0.702,1.282,-0.580,80.000,4387.000,1.000
20.677,10.546,10.860,12.021,12.369,5.271,8.795,15.752,-0.092,0.794,-0.483,0.854,1.434,-0.702,80.000,4388.000,1.000
18.353,8.519,6.930,8.612,9.713,4.938,8.420,13.112,-0.094,0.792,-0.481,0.793,1.404,-0.671,80.000,4389.000,1.000
16.374,6.858,3.928,4.437,7.187,5.058,8.316,10.019,-0.093,0.794,-0.482,0.885,1.373,-0.702,80.000,4390.000,1.000
15.262,5.410,2.250,1.801,5.123,5.579,8.288,7.284,-0.094,0.794,-0.486,0.977,1.404,-0.732,80.000,4391.000,1.000
15.350,4.126,1.847,1.996,3.821,6.237,8.069,5.756,-0.093,0.796,-0.484,0.946,1.373,-0.824,80.000,4392.000,1.000
16.167,3.015,2.178,4.137,3.273,6.621,7.345,5.738,-0.095,0.796,-0.483,0.946,1.434,-0.763,80.000,4393.000,1.000
16.749,2.251,2.671,5.888,3.246,6.533,5.933,6.776,-0.096,0.795,-0.483,0.977,1.373,-0.793,80.000,4394.000,1.000
16.930,2.476,3.525,5.889,3.827,6.338,4.133,8.186,-0.095,0.795,-0.478,1.099,1.404,-0.732,80.000,4395.000,1.000
17.652,4.475,5.550,4.963,5.431,6.605,2.614,9.565,-0.096,0.793,-0.479,1.038,1.404,-0.732,80.000,4396.000,1.000
19.709,8.305,9.081,4.742,8.054,7.268,1.751,10.707,-0.094,0.795,-0.480,1.099,1.404,-0.610,80.000,4397.000,1.000
22.858,13.135,13.567,6.076,10.987,7.518,1.258,11.551,-0.098,0.795,-0.483,1.099,1.434,-0.641,80.000,4398.000,1.000
26.516,18.072,18.343,9.173,13.540,6.789,0.664,12.450,-0.096,0.794,-0.483,1.129,1.373,-0.580,80.000,4399.000,1.000
30.592,22.626,23.233,14.152,15.670,5.489,-0.058,13.886,-0.097,0.794,-0.486,1.007,1.373,-0.549,80.000,4400.000,1.000
35.015,26.328,28.145,20.459,17.674,4.538,-0.539,15.708,-0.096,0.794,-0.483,1.007,1.221,-0.549,80.000,4401.000,1.000
39.071,28.729,32.628,26.515,19.680,4.615,-0.392,17.264,-0.096,0.795,-0.486,1.038,1.099,-0.458,80.000,4402.000,1.000
41.878,29.893,36.134,30.981,21.640,6.000,0.589,18.304,-0.097,0.795,-0.484,1.099,1.251,-0.458,80.000,4403.000,1.000
43.176,30.360,38.372,33.775,23.403,8.529,2.287,19.152,-0.096,0.795,-0.484,1.038,1.221,-0.519,80.000,4404.000,1.000
43.199,30.602,39.187,35.153,24.561,11.530,4.210,20.091,-0.094,0.797,-0.484,1.007,1.160,-0.427,80.000,4405.000,1.000
42.130,30.687,38.415,34.702,24.497,14.098,5.759,21.018,-0.093,0.798,-0.482,0.977,1.099,-0.366,80.000,4406.000,1.000
40.249,30.440,36.182,32.121,22.921,15.622,6.634,21.675,-0.095,0.797,-0.483,0.977,1.099,-0.366,80.000,4407.000,1.000
38.421,29.844,33.282,28.526,20.426,16.185,7.160,22.155,-0.095,0.796,-0.486,1.038,1.038,-0.275,80.000,4408.000,1.000
37.688,29.176,30.901,26.197,18.349,16.536,8.226,23.168,-0.097,0.796,-0.483,1.068,0.977,-0.275,80.000,4409.000,1.000
38.252,28.667,29.726,26.885,17.781,17.419,10.447,25.348,-0.096,0.796,-0.487,1.038,0.916,-0.275,80.000,4410.000,1.000
39.252,28.129,29.445,30.339,18.596,18.788,13.269,28.082,-0.096,0.797,-0.484,0.946,0.946,-0.275,80.000,4411.000,1.000
39.616,27.122,29.164,34.175,19.544,19.845,15.251,29.566,-0.095,0.798,-0.487,0.946,1.007,-0.183,80.000,4412.000,1.000
38.860,25.451,28.216,35.330,19.371,19.847,15.240,28.334,-0.097,0.796,-0.482,0.885,0.916,-0.183,80.000,4413.000,1.000
37.182,23.374,26.653,32.376,17.825,18.655,13.125,24.614,-0.096,0.796,-0.484,0.885,0.854,-0.153,80.000,4414.000,1.000
35.286,21.458,25.189,26.951,15.744,16.656,9.790,20.221,-0.096,0.796,-0.483,0.885,0.854,-0.275,80.000,4415.000,1.000
34.186,20.234,24.722,22.858,14.387,14.481,6.580,17.266,-0.097,0.798,-0.484,0.946,0.824,-0.275,80.000,4416.000,1.000
34.605,19.809,25.635,23.177,14.480,12.559,4.460,16.773,-0.094,0.797,-0.484,0.854,0.824,-0.153,80.000,4417.000,1.000
36.148,19.689,27.313,27.333,15.566,10.695,3.294,18.046,-0.094,0.798,-0.481,0.732,0.763,-0.183,80.000,4418.000,1.000
37.391,19.185,28.488,31.260,16.370,8.313,2.108,19.278,-0.096,0.798,-0.480,0.793,0.702,-0.153,80.000,4419.000,1.000
37.307,18.193,28.342,31.309,16.001,5.282,0.229,19.021,-0.095,0.796,-0.481,0.763,0.702,-0.214,80.000,4420.000,1.000
36.299,17.386,27.150,27.532,14.645,2.200,-2.079,17.187,-0.096,0.796,-0.484,0.793,0.702,-0.153,80.000,4421.000,1.000
35.414,17.377,25.713,22.771,13.010,-0.283,-4.127,14.755,-0.096,0.797,-0.483,0.763,0.610,-0.153,80.000,4422.000,1.000
35.019,17.862,24.442,19.518,11.431,-2.101,-5.462,12.698,-0.097,0.795,-0.481,0.763,0.580,-0.244,80.000,4423.000,1.000
34.816,17.909,23.253,18.431,9.842,-3.481,-5.876,11.442,-0.097,0.795,-0.482,0.824,0.549,-0.244,80.000,4424.000,1.000
34.605,16.854,21.999,19.001,8.278,-4.413,-5.307,11.055,-0.096,0.793,-0.483,0.824,0.519,-0.244,80.000,4425.000,1.000
34.191,14.543,20.410,20.168,6.754,-4.857,-4.205,11.212,-0.096,0.794,-0.480,0.763,0.519,-0.153,80.000,4426.000,1.000
33.005,11.173,18.037,20.616,4.981,-5.005,-3.543,11.092,-0.097,0.794,-0.482,0.763,0.519,-0.183,80.000,4427.000,1.000
30.735,7.528,14.893,19.544,2.813,-4.782,-3.936,9.986,-0.096,0.793,-0.482,0.854,0.458,-0.305,80.000,4428.000,1.000
28.163,4.982,11.829,17.004,0.754,-3.563,-4.963,8.002,-0.096,0.793,-0.482,0.916,0.458,-0.275,80.000,4429.000,1.000
26.700,4.569,9.900,13.655,-0.335,-0.910,-5.561,6.074,-0.094,0.793,-0.486,0.885,0.519,-0.183,80.000,4430.000,1.000
26.986,6.082,9.483,10.709,0.132,2.752,-4.876,5.288,-0.095,0.796,-0.482,0.977,0.458,-0.153,80.000,4431.000,1.000
28.337,8.303,10.141,9.575,2.113,6.501,-2.680,6.090,-0.096,0.799,-0.483,0.885,0.427,-0.275,80.000,4432.000,1.000
29.655,9.993,11.106,10.784,4.948,9.604,0.618,8.000,-0.097,0.798,-0.485,0.885,0.397,-0.244,80.000,4433.000,1.000
30.267,10.490,11.656,13.182,7.568,11.716,4.114,9.876,-0.097,0.797,-0.487,0.885,0.366,-0.122,80.000,4434.000,1.000
29.815,9.812,11.301,14.763,9.096,12.896,6.939,10.728,-0.096,0.798,-0.483,0.946,0.336,-0.122,80.000,4435.000,1.000
28.189,8.566,10.032,14.533,9.521,13.550,8.856,10.626,-0.097,0.798,-0.484,0.824,0.366,-0.214,80.000,4436.000,1.000
25.847,7.519,8.348,13.265,9.570,14.018,10.099,10.558,-0.097,0.798,-0.484,0.763,0.366,-0.153,80.000,4437.000,1.000
23.652,7.082,6.873,12.334,9.908,14.183,10.763,11.330,-0.097,0.798,-0.485,0.702,0.366,-0.183,80.000,4438.000,1.000
22.095,7.258,5.965,12.124,10.647,13.721,10.761,12.962,-0.095,0.795,-0.484,0.763,0.397,-0.122,80.000,4439.000,1.000
21.088,7.975,5.737,12.096,11.607,12.710,10.311,14.967,-0.096,0.798,-0.484,0.763,0.336,-0.214,80.000,4440.000,1.000
20.678,9.397,6.308,11.999,12.716,11.782,9.967,16.689,-0.096,0.798,-0.482,0.732,0.397,-0.214,80.000,4441.000,1.000
21.259,11.743,7.741,12.158,13.981,11.570,10.107,17.555,-0.096,0.799,-0.483,0.641,0.458,-0.214,80.000,4442.000,1.000
22.541,14.528,9.532,12.766,15.137,12.027,10.579,17.415,-0.095,0.797,-0.480,0.702,0.458,-0.122,80.000,4443.000,1.000
23.023,16.299,10.463,13.370,15.442,12.326,10.724,16.364,-0.096,0.797,-0.482,0.671,0.397,-0.061,80.000,4444.000,1.000
21.343,15.777,9.500,13.159,14.156,11.595,9.785,14.332,-0.097,0.796,-0.482,0.641,0.366,-0.092,80.000,4445.000,1.000
17.715,13.092,6.759,11.785,11.346,9.738,7.600,11.345,-0.097,0.796,-0.483,0.610,0.366,-0.183,80.000,4446.000,1.000
13.506,9.589,3.353,10.028,8.084,7.493,4.931,8.091,-0.095,0.798,-0.481,0.610,0.580,-0.061,80.000,4447.000,1.000
9.883,6.673,0.389,9.178,5.660,5.746,2.839,5.692,-0.094,0.795,-0.481,0.641,0.458,-0.031,80.000,4448.000,1.000
7.359,4.981,-1.714,9.218,4.625,4.969,1.811,4.731,-0.093,0.794,-0.483,0.671,0.397,-0.061,80.000,4449.000,1.000
6.283,4.535,-2.990,8.572,4.758,5.373,1.747,4.863,-0.093,0.794,-0.481,0.671,0.336,-0.031,80.000,4450.000,1.000
6.828,5.175,-3.423,6.146,5.722,7.128,2.449,5.395,-0.096,0.795,-0.479,0.763,0.397,-0.031,80.000,4451.000,1.000
8.304,6.416,-3.087,2.607,7.245,9.913,3.718,5.845,-0.100,0.796,-0.485,0.854,0.458,-0.061,80.000,4452.000,1.000
9.345,7.381,-2.366,-0.337,8.910,12.616,5.283,6.148,-0.100,0.797,-0.483,0.916,0.488,-0.031,80.000,4453.000,1.000
9.258,7.485,-1.548,-0.961,10.374,14.041,6.999,6.823,-0.099,0.796,-0.482,0.916,0.458,-0.061,80.000,4454.000,1.000
8.552,6.861,-0.541,1.649,11.597,13.826,8.861,8.478,-0.098,0.794,-0.483,0.916,0.488,-0.153,80.000,4455.000,1.000
7.878,5.816,0.594,6.296,12.451,12.481,10.670,10.638,-0.096,0.794,-0.481,1.099,0.397,-0.183,80.000,4456.000,1.000
7.356,4.446,1.401,9.787,12.582,10.856,12.040,11.838,-0.096,0.791,-0.479,1.129,0.488,-0.153,80.000,4457.000,1.000
7.360,3.111,1.869,10.009,12.071,9.706,12.822,11.303,-0.096,0.788,-0.480,1.251,0.488,-0.244,80.000,4458.000,1.000
8.807,2.651,2.842,8.233,11.640,9.380,13.141,9.771,-0.096,0.790,-0.477,1.434,0.549,-0.183,80.000,4459.000,1.000
11.824,3.438,4.904,7.033,11.721,9.554,12.931,8.388,-0.095,0.787,-0.481,1.526,0.580,-0.214,80.000,4460.000,1.000
15.039,4.566,7.367,7.051,11.818,9.374,11.827,7.465,-0.096,0.786,-0.481,1.617,0.641,-0.183,80.000,4461.000,1.000
16.972,4.745,8.985,7.102,11.251,8.241,9.707,6.524,-0.095,0.788,-0.483,1.801,0.702,-0.275,80.000,4462.000,1.000
17.440,3.775,9.315,6.553,10.163,6.464,7.093,5.183,-0.096,0.790,-0.482,1.740,0.763,-0.275,80.000,4463.000,1.000
17.025,2.546,8.837,6.167,9.304,4.869,4.715,3.611,-0.095,0.791,-0.481,1.862,0.763,-0.092,80.000,4464.000,1.000
16.022,1.896,8.167,6.695,9.065,3.845,2.862,2.215,-0.097,0.790,-0.481,1.862,0.732,-0.092,80.000,4465.000,1.000
14.789,2.156,7.803,7.969,9.285,3.140,1.488,1.392,-0.096,0.789,-0.483,2.014,0.854,-0.122,80.000,4466.000,1.000
14.356,3.524,8.340,9.811,9.864,2.555,0.737,1.651,-0.098,0.789,-0.484,2.167,0.854,-0.214,80.000,4467.000,1.000
15.647,6.029,10.146,12.590,10.955,2.322,0.901,3.430,-0.097,0.792,-0.483,2.258,0.885,-0.214,80.000,4468.000,1.000
18.373,9.103,12.830,16.219,12.591,2.780,2.084,6.586,-0.097,0.793,-0.485,2.350,0.854,-0.275,80.000,4469.000,1.000
21.334,11.843,15.512,19.463,14.541,4.094,4.289,10.216,-0.098,0.796,-0.485,2.441,0.916,-0.275,80.000,4470.000,1.000
23.498,13.832,17.500,20.702,16.465,6.182,7.490,12.999,-0.096,0.794,-0.487,2.502,0.885,-0.244,80.000,4471.000,1.000
24.358,15.240,18.465,19.033,17.990,8.670,11.249,13.935,-0.099,0.796,-0.489,2.502,0.977,-0.214,80.000,4472.000,1.000
23.680,16.102,18.268,14.780,18.723,10.954,14.538,12.940,-0.099,0.799,-0.489,2.563,0.977,-0.336,80.000,4473.000,1.000
21.678,16.078,17.049,9.544,18.498,12.479,16.312,10.827,-0.101,0.799,-0.486,2.563,0.885,-0.305,80.000,4474.000,1.000
19.283,15.028,15.420,5.676,17.676,13.046,16.291,8.809,-0.099,0.799,-0.485,2.502,0.946,-0.366,80.000,4475.000,1.000
17.444,13.319,14.086,4.691,16.888,12.883,14.983,7.742,-0.098,0.799,-0.486,2.502,0.946,-0.305,80.000,4476.000,1.000
16.229,11.582,13.305,6.120,16.543,12.544,13.224,7.722,-0.097,0.797,-0.485,2.472,0.916,-0.427,80.000,4477.000,1.000
15.165,10.609,13.052,8.515,16.855,12.806,11.930,8.503,-0.096,0.798,-0.482,2.441,0.916,-0.397,80.000,4478.000,1.000
14.133,11.179,13.365,10.786,17.981,14.298,11.794,9.812,-0.096,0.797,-0.486,2.502,0.916,-0.427,80.000,4479.000,1.000
13.369,13.436,14.161,12.238,19.749,16.968,12.802,11.195,-0.094,0.797,-0.490,2.502,1.038,-0.397,80.000,4480.000,1.000
12.925,16.582,15.092,12.722,21.608,20.053,14.344,12.336,-0.094,0.794,-0.487,2.472,1.038,-0.458,80.000,4481.000,1.000
12.608,19.437,15.763,12.871,23.025,22.652,15.877,13.537,-0.094,0.792,-0.484,2.502,1.099,-0.366,80.000,4482.000,1.000
12.241,21.068,15.811,13.246,23.636,24.148,17.135,15.180,-0.094,0.792,-0.484,2.533,1.160,-0.214,80.000,4483.000,1.000
11.590,20.882,14.821,13.594,23.113,24.196,17.799,16.893,-0.094,0.792,-0.485,2.502,1.312,-0.214,80.000,4484.000,1.000
10.179,18.734,12.515,13.185,21.192,22.704,17.437,17.638,-0.096,0.790,-0.489,2.563,1.343,-0.336,80.000,4485.000,1.000
7.693,15.290,9.177,11.510,17.985,20.040,15.870,16.579,-0.096,0.791,-0.488,2.502,1.373,-0.305,80.000,4486.000,1.000
4.699,11.963,5.825,8.823,14.205,17.088,13.434,13.924,-0.098,0.792,-0.486,2.594,1.434,-0.336,80.000,4487.000,1.000
2.454,10.100,3.651,5.954,10.796,14.780,10.684,10.799,-0.096,0.794,-0.486,2.533,1.373,-0.397,80.000,4488.000,1.000
1.741,10.116,3.115,3.395,8.186,13.463,7.882,8.021,-0.097,0.792,-0.482,2.563,1.434,-0.366,80.000,4489.000,1.000
2.317,11.447,3.759,0.956,6.181,12.837,5.018,5.343,-0.099,0.792,-0.484,2.472,1.465,-0.336,80.000,4490.000,1.000
3.617,13.240,4.900,-1.341,4.610,12.421,2.270,2.273,-0.096,0.792,-0.486,2.350,1.556,-0.488,80.000,4491.000,1.000
5.380,14.939,6.252,-2.501,3.775,11.996,0.177,-0.831,-0.095,0.793,-0.484,2.319,1.526,-0.458,80.000,4492.000,1.000
7.346,16.350,7.871,-1.192,4.235,11.820,-0.571,-2.814,-0.096,0.794,-0.485,2.167,1.526,-0.427,80.000,4493.000,1.000
9.013,17.614,9.791,2.849,6.392,12.612,0.583,-2.587,-0.096,0.793,-0.484,2.106,1.526,-0.580,80.000,4494.000,1.000
10.100,19.108,11.804,8.091,10.164,14.993,3.732,0.152,-0.094,0.793,-0.485,2.014,1.587,-0.671,80.000,4495.000,1.000
10.818,20.955,13.437,12.147,14.774,18.643,8.200,4.735,-0.094,0.794,-0.485,1.984,1.495,-0.641,80.000,4496.000,1.000
11.290,22.511,14.095,13.542,18.895,22.176,12.673,9.716,-0.094,0.795,-0.490,1.892,1.526,-0.641,80.000,4497.000,1.000
11.110,22.823,13.367,12.311,21.261,24.148,15.974,13.539,-0.095,0.794,-0.490,1.740,1.617,-0.702,80.000,4498.000,1.000
9.859,21.605,11.315,9.310,21.380,24.168,17.772,15.420,-0.095,0.796,-0.490,1.648,1.770,-0.702,80.000,4499.000,1.000
7.802,19.408,8.517,5.573,19.681,22.949,18.342,15.493,-0.095,0.796,-0.489,1.373,1.709,-0.671,80.000,4500.000,1.000
5.829,17.079,5.917,2.295,17.145,21.648,18.026,14.397,-0.096,0.796,-0.489,1.312,1.740,-0.641,80.000,4501.000,1.000
4.674,15.248,4.440,1.044,14.860,21.219,17.217,13.122,-0.098,0.796,-0.490,1.160,1.678,-0.671,80.000,4502.000,1.000
4.299,13.993,4.325,3.013,13.533,21.840,16.398,12.700,-0.097,0.797,-0.488,0.946,1.648,-0.702,80.000,4503.000,1.000
4.082,12.899,4.805,7.353,13.083,22.686,15.856,13.465,-0.098,0.797,-0.487,0.793,1.709,-0.641,80.000,4504.000,1.000
3.461,11.531,4.764,11.451,12.881,22.502,15.574,15.046,-0.101,0.795,-0.488,0.702,1.740,-0.702,80.000,4505.000,1.000
2.278,9.816,3.776,13.614,12.450,20.536,15.374,17.180,-0.099,0.794,-0.486,0.549,1.648,-0.549,80.000,4506.000,1.000
0.642,7.855,2.119,13.583,11.379,16.687,14.676,19.296,-0.101,0.795,-0.488,0.427,1.648,-0.580,80.000,4507.000,1.000
-1.123,5.652,0.152,10.921,8.929,11.130,12.386,19.451,-0.103,0.796,-0.486,0.397,1.587,-0.519,80.000,4508.000,1.000
-2.191,3.439,-1.500,6.003,4.864,4.568,7.954,15.834,-0.102,0.796,-0.487,0.275,1.465,-0.488,80.000,4509.000,1.000
-1.573,1.871,-1.722,1.677,0.299,-1.468,2.376,9.366,-0.102,0.794,-0.490,0.153,1.526,-0.458,80.000,4510.000,1.000
0.931,1.545,0.276,1.294,-3.051,-5.330,-2.468,3.219,-0.103,0.794,-0.489,0.000,1.404,-0.397,80.000,4511.000,1.000
4.614,2.625,4.234,5.410,-4.117,-6.222,-5.163,-0.060,-0.103,0.795,-0.486,-0.122,1.312,-0.336,80.000,4512.000,1.000
8.523,4.893,9.026,11.251,-3.001,-4.613,-5.477,-0.319,-0.105,0.794,-0.484,-0.122,1.251,-0.244,80.000,4513.000,1.000
11.702,7.682,13.226,15.280,-0.825,-2.031,-4.259,0.839,-0.104,0.793,-0.484,-0.153,1.160,-0.153,80.000,4514.000,1.000
13.371,9.977,15.754,16.303,1.064,-0.202,-2.749,1.898,-0.104,0.793,-0.485,-0.244,1.129,-0.092,80.000,4515.000,1.000
13.390,10.969,16.305,15.742,1.941,-0.102,-1.841,2.395,-0.102,0.791,-0.485,-0.122,1.099,-0.061,80.000,4516.000,1.000
12.179,10.411,15.139,14.897,1.778,-1.658,-1.753,2.438,-0.102,0.791,-0.490,-0.183,0.946,0.061,80.000,4517.000,1.000
10.246,8.571,12.818,13.592,0.964,-3.922,-1.955,2.280,-0.101,0.791,-0.489,-0.153,0.793,0.153,80.000,4518.000,1.000
8.162,6.166,10.337,11.930,0.194,-5.435,-1.452,2.451,-0.101,0.792,-0.489,0.000,0.763,0.183,80.000,4519.000,1.000
6.651,4.145,8.896,11.358,0.117,-5.108,0.327,3.540,-0.101,0.789,-0.488,-0.031,0.702,0.275,80.000,4520.000,1.000
6.297,3.210,9.168,13.345,0.845,-3.080,2.886,5.720,-0.099,0.790,-0.485,-0.092,0.610,0.397,80.000,4521.000,1.000
7.207,3.505,10.940,17.888,1.989,-0.464,5.155,8.562,-0.101,0.792,-0.486,-0.061,0.580,0.427,80.000,4522.000,1.000
8.872,4.657,13.271,22.994,3.062,1.647,6.453,11.120,-0.098,0.792,-0.484,0.000,0.580,0.458,80.000,4523.000,1.000
10.346,5.965,14.855,25.316,3.627,2.677,6.713,12.263,-0.096,0.791,-0.486,0.122,0.580,0.610,80.000,4524.000,1.000
10.816,6.751,14.662,22.546,3.310,2.443,6.057,11.234,-0.097,0.792,-0.484,0.153,0.580,0.610,80.000,4525.000,1.000
10.061,6.811,12.637,15.797,2.049,1.179,4.679,8.263,-0.096,0.793,-0.484,0.092,0.641,0.702,80.000,4526.000,1.000
8.357,6.476,9.713,8.783,0.291,-0.357,3.084,4.610,-0.097,0.795,-0.487,0.061,0.610,0.641,80.000,4527.000,1.000
6.180,6.194,7.073,4.594,-1.221,-1.167,1.985,1.647,-0.098,0.795,-0.482,0.061,0.671,0.732,80.000,4528.000,1.000
4.083,6.179,5.504,3.933,-1.837,-0.597,1.885,0.008,-0.096,0.792,-0.479,0.031,0.702,0.671,80.000,4529.000,1.000
2.361,6.269,5.087,5.540,-1.418,1.123,2.702,-0.482,-0.092,0.788,-0.481,-0.031,0.763,0.580,80.000,4530.000,1.000
0.735,5.997,5.158,7.125,-0.532,2.983,3.755,-0.462,-0.091,0.787,-0.479,0.183,0.732,0.732,80.000,4531.000,1.000
-1.104,5.140,4.898,6.845,0.050,4.078,4.305,-0.482,-0.092,0.789,-0.481,0.275,0.854,0.641,80.000,4532.000,1.000
-2.592,4.182,4.223,4.887,0.132,4.284,4.099,-0.536,-0.091,0.790,-0.484,0.275,1.038,0.549,80.000,4533.000,1.000
-2.466,3.913,3.942,3.478,0.182,3.925,3.302,-0.176,-0.094,0.790,-0.484,0.214,1.129,0.519,80.000,4534.000,1.000
-0.100,4.544,4.906,5.022,0.665,3.086,2.095,0.889,-0.094,0.790,-0.482,0.305,1.129,0.427,80.000,4535.000,1.000
3.471,5.359,6.963,9.586,1.332,1.421,0.379,2.123,-0.093,0.789,-0.483,0.397,1.251,0.397,80.000,4536.000,1.000
6.596,5.516,9.167,14.711,1.453,-1.344,-2.040,2.327,-0.091,0.791,-0.486,0.397,1.373,0.336,80.000,4537.000,1.000
8.887,5.006,10.987,18.311,0.803,-4.711,-4.869,0.813,-0.093,0.792,-0.482,0.458,1.434,0.214,80.000,4538.000,1.000
10.698,4.287,12.289,19.789,-0.283,-7.593,-7.318,-2.087,-0.095,0.794,-0.485,0.458,1.556,0.000,80.000,4539.000,1.000
11.210,3.163,12.185,18.077,-1.846,-9.317,-8.820,-5.710,-0.094,0.792,-0.485,0.366,1.465,0.092,80.000,4540.000,1.000
8.693,0.701,9.141,11.535,-4.519,-10.233,-9.463,-9.551,-0.094,0.792,-0.485,0.458,1.556,-0.092,80.000,4541.000,1.000
2.507,-3.712,2.559,0.572,-8.654,-11.283,-9.724,-13.156,-0.095,0.791,-0.487,0.549,1.648,-0.214,80.000,4542.000,1.000
-5.934,-9.513,-6.178,-11.246,-13.604,-12.967,-9.894,-15.996,-0.097,0.792,-0.487,0.641,1.709,-0.336,80.000,4543.000,1.000
-14.087,-15.267,-14.406,-19.387,-18.007,-14.764,-9.811,-17.549,-0.096,0.794,-0.484,0.763,1.587,-0.397,80.000,4544.000,1.000
-19.602,-19.506,-19.765,-21.521,-20.650,-15.569,-9.203,-17.594,-0.095,0.794,-0.484,0.732,1.648,-0.397,80.000,4545.000,1.000
-21.039,-21.214,-21.201,-18.688,-21.078,-14.551,-8.115,-16.508,-0.095,0.794,-0.485,0.641,1.587,-0.458,80.000,4546.000,1.000
-18.432,-20.036,-19.101,-13.739,-19.559,-11.599,-6.776,-15.001,-0.093,0.796,-0.483,0.732,1.617,-0.610,80.000,4547.000,1.000
-13.531,-16.488,-14.901,-8.758,-16.657,-7.257,-5.158,-13.346,-0.095,0.799,-0.487,0.702,1.617,-0.641,80.000,4548.000,1.000
-8.600,-11.770,-10.147,-3.605,-12.779,-2.338,-2.903,-11.039,-0.095,0.798,-0.486,0.610,1.648,-0.641,80.000,4549.000,1.000
-4.787,-7.257,-5.771,2.874,-8.168,2.445,0.161,-7.499,-0.096,0.796,-0.485,0.671,1.709,-0.580,80.000,4550.000,1.000
-2.354,-4.286,-2.512,9.904,-3.516,6.319,3.401,-3.203,-0.098,0.796,-0.484,0.702,1.770,-0.519,80.000,4551.000,1.000
-1.868,-4.013,-1.488,14.072,-0.267,8.192,5.442,-0.033,-0.095,0.797,-0.487,0.671,1.709,-0.549,80.000,4552.000,1.000
-3.836,-6.717,-3.457,12.149,0.184,7.154,5.101,-0.238,-0.095,0.796,-0.487,0.641,1.831,-0.488,80.000,4553.000,1.000
-7.539,-11.169,-7.717,4.082,-2.303,3.336,2.374,-4.561,-0.095,0.798,-0.486,0.702,1.892,-0.427,80.000,4554.000,1.000
-11.400,-15.222,-12.450,-6.752,-6.392,-1.985,-1.528,-11.248,-0.096,0.798,-0.484,0.702,1.831,-0.366,80.000,4555.000,1.000
-14.511,-17.417,-16.200,-15.891,-10.284,-7.169,-5.029,-17.218,-0.098,0.800,-0.484,0.641,1.770,-0.397,80.000,4556.000,1.000
-17.100,-17.887,-18.693,-20.603,-12.789,-10.969,-7.052,-20.233,-0.098,0.800,-0.483,0.610,1.923,-0.275,80.000,4557.000,1.000
-19.442,-17.643,-20.225,-20.839,-13.595,-12.727,-7.312,-19.996,-0.101,0.799,-0.484,0.458,1.831,-0.244,80.000,4558.000,1.000
-21.064,-17.422,-20.873,-18.107,-13.001,-12.369,-6.184,-17.719,-0.098,0.796,-0.485,0.305,1.770,-0.275,80.000,4559.000,1.000
-21.407,-17.461,-20.624,-14.159,-11.662,-10.508,-4.392,-15.007,-0.098,0.795,-0.484,0.305,1.678,-0.305,80.000,4560.000,1.000
-20.573,-17.676,-19.712,-10.133,-10.249,-8.156,-2.546,-12.860,-0.099,0.795,-0.486,0.427,1.617,-0.275,80.000,4561.000,1.000
-18.850,-17.471,-18.291,-5.799,-8.915,-5.933,-0.729,-11.250,-0.098,0.797,-0.485,0.397,1.617,-0.305,80.000,4562.000,1.000
-16.282,-16.035,-16.220,0.070,-7.311,-3.799,1.315,-9.581,-0.101,0.797,-0.486,0.397,1.556,-0.275,80.000,4563.000,1.000
-13.295,-13.560,-13.612,7.748,-5.386,-1.771,3.486,-7.692,-0.099,0.795,-0.484,0.427,1.465,-0.214,80.000,4564.000,1.000
-11.061,-11.586,-11.212,15.179,-3.879,-0.530,5.109,-6.183,-0.098,0.795,-0.483,0.488,1.343,-0.305,80.000,4565.000,1.000
-10.781,-11.706,-10.112,18.610,-3.908,-1.061,5.454,-5.888,-0.097,0.792,-0.481,0.488,1.343,-0.305,80.000,4566.000,1.000
-12.708,-14.271,-11.069,14.979,-6.114,-3.722,4.370,-7.322,-0.096,0.793,-0.482,0.488,1.312,-0.305,80.000,4567.000,1.000
-15.781,-18.153,-13.682,5.021,-9.894,-7.517,2.574,-10.062,-0.097,0.793,-0.480,0.580,1.282,-0.305,80.000,4568.000,1.000
-18.221,-21.406,-16.374,-6.280,-13.499,-10.359,1.346,-12.658,-0.097,0.793,-0.481,0.580,1.190,-0.366,80.000,4569.000,1.000
-18.666,-22.366,-17.522,-13.205,-15.159,-10.358,1.721,-13.720,-0.096,0.793,-0.484,0.549,1.373,-0.397,80.000,4570.000,1.000
-16.937,-20.434,-16.542,-13.313,-14.133,-6.978,3.892,-12.898,-0.096,0.793,-0.483,0.763,1.221,-0.336,80.000,4571.000,1.000
-14.098,-16.254,-14.064,-8.615,-10.962,-1.204,7.234,-10.691,-0.096,0.794,-0.480,0.793,1.221,-0.305,80.000,4572.000,1.000
-11.585,-11.290,-11.152,-2.970,-6.791,5.305,11.010,-7.426,-0.095,0.793,-0.486,0.793,1.129,-0.397,80.000,4573.000,1.000
-9.959,-6.997,-8.343,1.721,-2.438,11.139,14.930,-2.723,-0.096,0.792,-0.486,0.824,1.221,-0.427,80.000,4574.000,1.000
-8.949,-4.379,-5.895,5.409,1.443,15.090,18.587,3.316,-0.097,0.792,-0.482,0.885,1.221,-0.488,80.000,4575.000,1.000
-8.587,-4.036,-4.606,7.005,3.736,16.067,20.896,8.975,-0.095,0.792,-0.480,1.038,1.190,-0.458,80.000,4576.000,1.000
-9.257,-5.892,-5.242,4.844,3.512,13.967,20.887,12.089,-0.098,0.790,-0.480,1.099,1.160,-0.427,80.000,4577.000,1.000
-10.647,-8.803,-7.287,-0.345,1.161,10.171,18.730,11.924,-0.096,0.792,-0.481,1.190,1.007,-0.488,80.000,4578.000,1.000
-11.642,-11.029,-9.119,-5.369,-1.726,6.662,15.688,9.514,-0.096,0.792,-0.483,1.190,1.007,-0.458,80.000,4579.000,1.000
-11.394,-11.490,-9.395,-7.298,-3.587,4.674,13.179,6.639,-0.097,0.790,-0.485,1.251,1.038,-0.488,80.000,4580.000,1.000
-10.107,-10.592,-7.993,-5.386,-3.941,4.025,11.808,4.614,-0.097,0.791,-0.487,1.312,1.099,-0.519,80.000,4581.000,1.000
-8.922,-9.721,-5.967,-1.334,-3.470,3.502,11.179,3.614,-0.097,0.792,-0.485,1.282,1.007,-0.427,80.000,4582.000,1.000
-9.061,-9.954,-4.810,1.495,-3.317,1.959,10.534,2.684,-0.097,0.792,-0.484,1.282,1.038,-0.397,80.000,4583.000,1.000
-10.784,-11.260,-5.385,0.352,-4.128,-0.658,9.579,0.749,-0.099,0.795,-0.484,1.373,1.038,-0.519,80.000,4584.000,1.000
-13.303,-12.816,-7.360,-4.492,-5.545,-3.251,8.737,-2.036,-0.097,0.795,-0.484,1.312,1.068,-0.458,80.000,4585.000,1.000
-15.650,-13.825,-9.687,-10.201,-6.636,-4.576,8.623,-4.242,-0.098,0.793,-0.483,1.312,0.977,-0.488,80.000,4586.000,1.000
-17.092,-13.904,-11.375,-14.178,-6.738,-4.253,9.373,-4.578,-0.098,0.795,-0.481,1.404,0.885,-0.397,80.000,4587.000,1.000
-17.064,-13.102,-11.894,-15.713,-5.896,-2.885,10.494,-3.147,-0.100,0.794,-0.481,1.404,0.977,-0.427,80.000,4588.000,1.000
-15.537,-11.948,-11.350,-15.339,-4.689,-1.444,11.323,-1.174,-0.099,0.793,-0.479,1.373,0.885,-0.366,80.000,4589.000,1.000
-13.363,-11.289,-10.459,-14.051,-3.823,-0.597,11.502,0.201,-0.099,0.794,-0.482,1.343,0.885,-0.397,80.000,4590.000,1.000
-11.536,-11.617,-9.959,-12.855,-3.704,-0.364,11.024,0.554,-0.098,0.792,-0.483,1.373,0.824,-0.397,80.000,4591.000,1.000
-10.057,-12.340,-9.724,-11.782,-4.037,-0.092,10.223,0.186,-0.098,0.793,-0.484,1.312,0.916,-0.397,80.000,4592.000,1.000
-8.181,-12.117,-8.869,-9.842,-3.991,1.069,9.701,-0.048,-0.099,0.794,-0.483,1.343,0.824,-0.336,80.000,4593.000,1.000
-5.763,-10.292,-6.971,-6.622,-3.116,3.213,9.727,0.568,-0.097,0.795,-0.484,1.373,0.916,-0.214,80.000,4594.000,1.000
-3.690,-7.747,-4.814,-3.335,-1.971,5.234,9.784,1.772,-0.096,0.794,-0.484,1.282,0.946,-0.153,80.000,4595.000,1.000
-3.006,-6.090,-3.742,-2.139,-1.640,5.694,9.094,2.436,-0.096,0.796,-0.485,1.282,1.007,-0.122,80.000,4596.000,1.000
-4.130,-6.284,-4.568,-4.549,-2.833,4.082,7.436,1.565,-0.098,0.796,-0.483,1.251,0.977,-0.183,80.000,4597.000,1.000
-6.780,-8.223,-7.114,-10.095,-5.515,1.056,5.168,-0.970,-0.098,0.796,-0.483,1.190,1.007,-0.214,80.000,4598.000,1.000
-10.077,-11.155,-10.434,-16.318,-9.032,-2.306,2.751,-4.427,-0.094,0.795,-0.485,1.129,1.038,-0.122,80.000,4599.000,1.000
-12.673,-14.048,-13.254,-20.472,-12.379,-5.234,0.447,-7.769,-0.094,0.794,-0.484,1.099,1.038,-0.092,80.000,4600.000,1.000
-13.286,-15.784,-14.393,-21.152,-14.495,-7.372,-1.621,-10.169,-0.095,0.795,-0.486,1.068,1.129,-0.031,80.000,4601.000,1.000
-11.616,-15.606,-13.253,-18.487,-14.684,-8.545,-3.192,-11.048,-0.094,0.795,-0.486,1.038,1.160,-0.061,80.000,4602.000,1.000
-8.746,-13.694,-10.289,-13.755,-13.063,-8.676,-3.859,-10.197,-0.095,0.796,-0.487,0.977,1.099,-0.092,80.000,4603.000,1.000
-6.208,-11.010,-6.731,-8.566,-10.473,-7.792,-3.337,-7.980,-0.097,0.795,-0.485,0.946,1.190,-0.122,80.000,4604.000,1.000
-4.761,-8.556,-3.737,-3.995,-7.887,-5.992,-1.667,-5.171,-0.094,0.794,-0.485,0.885,1.251,-0.092,80.000,4605.000,1.000
-4.427,-6.981,-1.987,-0.898,-6.077,-3.562,0.702,-2.698,-0.097,0.795,-0.485,0.854,1.312,-0.061,80.000,4606.000,1.000
-5.163,-6.635,-1.778,-0.417,-5.507,-1.133,3.021,-1.310,-0.096,0.797,-0.484,0.824,1.404,0.000,80.000,4607.000,1.000
-6.948,-7.614,-3.074,-3.287,-6.218,0.462,4.533,-1.276,-0.096,0.798,-0.487,0.946,1.373,-0.061,80.000,4608.000,1.000
-9.457,-9.655,-5.445,-8.673,-7.835,0.661,4.743,-2.426,-0.098,0.798,-0.484,0.824,1.434,-0.031,80.000,4609.000,1.000
-12.067,-12.034,-8.037,-13.816,-9.551,-0.285,3.744,-4.009,-0.095,0.796,-0.485,0.732,1.373,-0.122,80.000,4610.000,1.000
-14.132,-13.768,-9.854,-15.356,-10.254,-1.288,2.314,-4.707,-0.094,0.797,-0.486,0.763,1.373,-0.153,80.000,4611.000,1.000
-15.086,-14.090,-10.237,-11.851,-9.185,-1.131,1.380,-3.834,-0.095,0.795,-0.484,0.549,1.434,-0.214,80.000,4612.000,1.000
-14.585,-12.884,-9.227,-5.181,-6.589,0.713,1.412,-2.248,-0.096,0.795,-0.482,0.610,1.465,-0.183,80.000,4613.000,1.000
-13.004,-10.778,-7.567,0.811,-3.556,3.732,2.321,-1.326,-0.094,0.796,-0.482,0.610,1.495,-0.092,80.000,4614.000,1.000
-11.485,-8.790,-6.321,3.080,-1.268,6.719,3.692,-1.553,-0.095,0.795,-0.480,0.610,1.556,-0.092,80.000,4615.000,1.000
-11.106,-7.731,-6.341,0.823,-0.419,8.584,4.969,-2.588,-0.095,0.793,-0.483,0.549,1.526,-0.183,80.000,4616.000,1.000
-12.143,-7.810,-7.938,-4.955,-1.096,9.008,5.642,-4.175,-0.096,0.796,-0.482,0.549,1.465,-0.305,80.000,4617.000,1.000
-14.309,-8.736,-10.876,-12.449,-2.914,8.505,5.487,-6.454,-0.095,0.798,-0.482,0.458,1.556,-0.305,80.000,4618.000,1.000
-17.294,-10.086,-14.523,-19.699,-5.140,7.973,4.790,-9.287,-0.097,0.798,-0.484,0.488,1.556,-0.336,80.000,4619.000,1.000
-20.450,-11.257,-17.841,-24.653,-6.709,8.160,4.313,-11.611,-0.095,0.795,-0.484,0.488,1.556,-0.214,80.000,4620.000,1.000
-22.409,-11.336,-19.545,-25.237,-6.484,9.438,4.922,-11.860,-0.096,0.795,-0.482,0.519,1.556,-0.275,80.000,4621.000,1.000
-22.153,-9.784,-18.925,-20.489,-3.988,11.749,7.020,-9.104,-0.097,0.794,-0.486,0.519,1.617,-0.244,80.000,4622.000,1.000
-20.545,-7.390,-16.762,-12.419,-0.181,14.350,10.064,-3.992,-0.098,0.797,-0.483,0.580,1.709,-0.244,80.000,4623.000,1.000
-19.807,-5.974,-15.029,-5.895,2.702,15.786,12.608,1.236,-0.096,0.796,-0.486,0.610,1.709,-0.214,80.000,4624.000,1.000
-21.138,-6.813,-15.168,-5.047,2.720,14.834,13.310,4.084,-0.097,0.794,-0.486,0.641,1.648,-0.214,80.000,4625.000,1.000
-23.750,-9.705,-16.989,-10.018,-0.326,11.509,11.916,3.450,-0.098,0.793,-0.486,0.580,1.648,-0.214,80.000,4626.000,1.000
-26.358,-13.590,-19.473,-17.861,-5.107,6.844,9.102,0.103,-0.097,0.791,-0.487,0.732,1.709,-0.214,80.000,4627.000,1.000
-28.434,-17.397,-21.832,-25.299,-9.891,2.078,5.806,-4.063,-0.096,0.793,-0.482,0.702,1.740,-0.153,80.000,4628.000,1.000
-29.871,-20.257,-23.562,-30.240,-13.437,-1.810,2.788,-7.372,-0.097,0.795,-0.480,0.702,1.709,-0.122,80.000,4629.000,1.000
-30.508,-21.583,-24.275,-32.092,-15.373,-4.265,0.429,-9.349,-0.096,0.794,-0.483,0.763,1.648,-0.061,80.000,4630.000,1.000
-30.303,-21.220,-23.791,-31.244,-15.938,-5.086,-1.086,-10.421,-0.097,0.793,-0.486,0.824,1.648,-0.061,80.000,4631.000,1.000
-29.426,-19.352,-22.123,-28.004,-15.331,-4.213,-1.431,-10.852,-0.097,0.794,-0.482,0.885,1.648,-0.061,80.000,4632.000,1.000
-27.972,-16.298,-19.421,-22.337,-13.512,-1.713,-0.274,-10.410,-0.097,0.791,-0.479,0.854,1.587,-0.092,80.000,4633.000,1.000
-26.036,-12.610,-16.228,-15.187,-10.750,1.935,2.226,-9.220,-0.097,0.791,-0.480,0.977,1.587,-0.061,80.000,4634.000,1.000
-24.250,-9.348,-13.725,-9.578,-8.154,5.656,5.199,-8.392,-0.095,0.793,-0.485,1.038,1.648,-0.031,80.000,4635.000,1.000
-23.615,-7.794,-13.206,-8.973,-7.240,8.137,7.470,-9.132,-0.097,0.794,-0.485,1.007,1.678,-0.031,80.000,4636.000,1.000
-24.340,-8.511,-14.987,-14.006,-8.719,8.564,8.315,-11.379,-0.096,0.794,-0.485,1.068,1.556,0.000,80.000,4637.000,1.000
-25.436,-10.966,-18.083,-21.654,-11.878,6.951,7.797,-13.812,-0.096,0.792,-0.483,1.068,1.526,0.061,80.000,4638.000,1.000
-25.882,-14.145,-21.078,-27.799,-15.218,3.730,6.386,-14.937,-0.095,0.792,-0.484,1.160,1.556,0.031,80.000,4639.000,1.000
-25.567,-17.087,-22.961,-29.914,-17.404,-0.535,4.537,-13.846,-0.096,0.793,-0.482,1.160,1.465,0.092,80.000,4640.000,1.000
-24.755,-18.847,-23.232,-27.785,-17.712,-4.965,2.691,-10.667,-0.095,0.792,-0.482,1.221,1.556,0.061,80.000,4641.000,1.000
-23.360,-18.658,-21.814,-23.030,-16.208,-8.514,1.208,-7.024,-0.096,0.793,-0.485,1.221,1.587,-0.031,80.000,4642.000,1.000
-21.272,-16.487,-19.083,-17.994,-13.683,-10.501,0.199,-5.366,-0.094,0.792,-0.485,1.282,1.526,0.000,80.000,4643.000,1.000
-19.030,-13.300,-15.872,-14.612,-11.230,-10.921,-0.471,-7.056,-0.094,0.792,-0.484,1.312,1.556,0.031,80.000,4644.000,1.000
-17.575,-10.510,-13.261,-13.994,-9.773,-10.336,-1.035,-11.351,-0.096,0.793,-0.482,1.282,1.556,-0.092,80.000,4645.000,1.000
-17.318,-9.023,-12.043,-16.389,-9.756,-9.567,-1.685,-16.301,-0.095,0.793,-0.485,1.221,1.495,-0.031,80.000,4646.000,1.000
-17.810,-8.867,-12.204,-20.923,-11.028,-9.379,-2.497,-20.161,-0.094,0.793,-0.483,1.312,1.587,-0.061,80.000,4647.000,1.000
-18.191,-9.471,-12.817,-25.200,-12.850,-10.033,-3.297,-21.942,-0.094,0.793,-0.487,1.373,1.587,0.000,80.000,4648.000,1.000
-17.694,-10.053,-12.567,-26.112,-14.134,-10.930,-3.562,-21.438,-0.094,0.794,-0.488,1.343,1.648,0.031,80.000,4649.000,1.000
-16.117,-10.050,-10.828,-22.680,-14.144,-11.053,-2.757,-19.377,-0.094,0.793,-0.487,1.282,1.465,-0.122,80.000,4650.000,1.000
-14.176,-9.418,-8.245,-17.648,-13.042,-9.833,-0.836,-17.141,-0.094,0.794,-0.486,1.160,1.526,-0.153,80.000,4651.000,1.000
-13.069,-8.390,-5.916,-14.670,-11.415,-7.309,1.880,-15.573,-0.094,0.794,-0.489,1.251,1.495,-0.122,80.000,4652.000,1.000
-13.389,-7.021,-4.293,-14.757,-9.517,-3.799,5.128,-14.281,-0.095,0.794,-0.486,1.312,1.495,-0.153,80.000,4653.000,1.000
-14.567,-5.172,-3.103,-16.370,-7.330,0.043,8.614,-12.602,-0.094,0.794,-0.486,1.282,1.465,-0.092,80.000,4654.000,1.000
-15.536,-2.906,-2.037,-17.799,-5.148,3.092,11.692,-10.747,-0.095,0.795,-0.489,1.282,1.434,-0.214,80.000,4655.000,1.000
-15.843,-0.809,-1.193,-18.688,-3.664,4.195,13.508,-9.338,-0.095,0.797,-0.488,1.282,1.495,-0.153,80.000,4656.000,1.000
-15.704,0.303,-0.774,-19.391,-3.414,2.936,13.567,-8.298,-0.095,0.794,-0.486,1.221,1.526,-0.122,80.000,4657.000,1.000
-15.068,0.111,-0.537,-19.570,-4.276,-0.006,12.071,-7.062,-0.095,0.795,-0.484,1.129,1.495,-0.092,80.000,4658.000,1.000
-13.431,-0.953,0.009,-18.599,-5.710,-3.308,9.687,-5.748,-0.096,0.793,-0.483,1.038,1.465,-0.061,80.000,4659.000,1.000
-10.834,-2.244,0.917,-16.997,-7.251,-5.841,7.075,-5.221,-0.095,0.797,-0.484,0.977,1.434,-0.122,80.000,4660.000,1.000
-8.240,-3.319,1.767,-16.084,-8.603,-7.217,4.599,-5.980,-0.095,0.799,-0.485,0.885,1.434,-0.214,80.000,4661.000,1.000
-6.449,-3.802,2.343,-16.319,-9.492,-7.778,2.318,-7.667,-0.097,0.799,-0.484,0.854,1.434,-0.183,80.000,4662.000,1.000
-5.146,-3.253,3.049,-16.569,-9.513,-8.064,0.334,-9.289,-0.096,0.798,-0.485,0.793,1.465,-0.183,80.000,4663.000,1.000
-3.510,-1.471,4.516,-14.886,-8.151,-8.198,-0.791,-9.460,-0.096,0.795,-0.482,0.671,1.312,-0.214,80.000,4664.000,1.000
-1.490,1.057,6.715,-10.398,-5.313,-7.852,-0.344,-7.364,-0.097,0.797,-0.481,0.641,1.373,-0.153,80.000,4665.000,1.000
0.013,3.245,8.594,-5.095,-1.812,-6.669,1.825,-3.848,-0.095,0.798,-0.485,0.702,1.343,-0.183,80.000,4666.000,1.000
0.186,4.213,8.906,-2.873,1.148,-4.459,5.270,-0.770,-0.096,0.799,-0.484,0.519,1.343,-0.092,80.000,4667.000,1.000
-0.900,3.950,7.434,-5.710,2.919,-1.240,9.358,0.734,-0.097,0.799,-0.486,0.366,1.343,-0.153,80.000,4668.000,1.000
-2.578,3.024,5.100,-11.767,3.542,2.519,13.307,0.827,-0.094,0.797,-0.482,0.397,1.221,-0.122,80.000,4669.000,1.000
-4.086,1.904,3.040,-17.673,3.181,5.794,16.122,0.168,-0.095,0.797,-0.484,0.366,1.221,-0.061,80.000,4670.000,1.000
-4.553,0.878,2.027,-20.950,1.959,7.514,17.003,-0.768,-0.096,0.796,-0.485,0.244,1.221,-0.061,80.000,4671.000,1.000
-3.307,0.249,2.433,-20.173,0.283,7.309,15.967,-1.532,-0.098,0.794,-0.488,0.244,1.251,0.031,80.000,4672.000,1.000
-0.741,0.149,4.074,-15.081,-1.100,5.751,13.946,-1.470,-0.097,0.795,-0.486,0.214,1.221,0.092,80.000,4673.000,1.000
1.608,0.223,5.910,-7.927,-1.733,3.859,12.004,-0.479,-0.097,0.795,-0.484,0.183,1.282,0.153,80.000,4674.000,1.000
2.266,-0.179,6.370,-3.307,-2.056,2.339,10.348,0.115,-0.096,0.795,-0.485,0.153,1.282,0.214,80.000,4675.000,1.000
0.978,-1.356,4.544,-4.387,-2.917,1.347,8.414,-1.332,-0.094,0.794,-0.481,0.153,1.282,0.214,80.000,4676.000,1.000
-1.525,-2.943,0.964,-9.856,-4.547,0.792,5.877,-4.687,-0.093,0.796,-0.485,0.214,1.251,0.244,80.000,4677.000,1.000
-4.528,-4.332,-3.068,-15.926,-6.428,0.469,3.174,-8.098,-0.094,0.796,-0.483,0.275,1.343,0.275,80.000,4678.000,1.000
-7.611,-5.267,-6.627,-20.341,-8.058,-0.054,0.999,-10.086,-0.093,0.796,-0.485,0.214,1.495,0.366,80.000,4679.000,1.000
-10.340,-5.914,-9.452,-23.341,-9.417,-1.234,-0.371,-10.674,-0.094,0.796,-0.483,0.244,1.373,0.397,80.000,4680.000,1.000
-12.261,-6.503,-11.462,-25.684,-10.696,-3.032,-1.149,-10.637,-0.094,0.796,-0.484,0.305,1.434,0.427,80.000,4681.000,1.000
-13.126,-7.088,-12.477,-27.238,-11.875,-4.785,-1.631,-10.585,-0.094,0.795,-0.483,0.275,1.373,0.366,80.000,4682.000,1.000
-12.899,-7.621,-12.446,-27.412,-12.653,-5.762,-1.866,-10.668,-0.094,0.794,-0.485,0.275,1.312,0.397,80.000,4683.000,1.000
-11.725,-8.141,-11.696,-26.085,-12.749,-5.864,-1.750,-10.611,-0.094,0.795,-0.482,0.305,1.434,0.305,80.000,4684.000,1.000
-10.095,-8.793,-10.814,-23.844,-12.232,-5.672,-1.314,-10.044,-0.094,0.794,-0.479,0.397,1.373,0.336,80.000,4685.000,1.000
-8.751,-9.595,-10.245,-21.295,-11.469,-5.752,-0.786,-8.916,-0.092,0.792,-0.480,0.427,1.312,0.366,80.000,4686.000,1.000
-8.151,-10.180,-10.041,-18.477,-10.788,-6.078,-0.472,-7.607,-0.092,0.790,-0.484,0.305,1.312,0.244,80.000,4687.000,1.000
-8.160,-9.957,-10.013,-15.367,-10.273,-6.158,-0.581,-6.562,-0.092,0.789,-0.482,0.458,1.373,0.214,80.000,4688.000,1.000
-8.454,-8.637,-10.049,-12.847,-9.915,-5.625,-1.156,-6.053,-0.092,0.787,-0.481,0.580,1.434,0.214,80.000,4689.000,1.000
-8.920,-6.589,-10.178,-12.496,-9.917,-4.740,-2.258,-6.473,-0.094,0.789,-0.483,0.702,1.434,0.122,80.000,4690.000,1.000
-9.301,-4.589,-10.291,-14.873,-10.544,-4.303,-3.994,-8.137,-0.096,0.790,-0.482,0.732,1.495,0.092,80.000,4691.000,1.000
-8.790,-3.215,-9.970,-18.526,-11.638,-4.945,-6.216,-10.624,-0.094,0.789,-0.480,0.793,1.434,0.092,80.000,4692.000,1.000
-6.638,-2.556,-8.857,-21.466,-12.701,-6.574,-8.495,-13.180,-0.093,0.789,-0.483,0.946,1.434,-0.092,80.000,4693.000,1.000
-3.094,-2.356,-7.042,-22.721,-13.327,-8.453,-10.325,-15.324,-0.091,0.789,-0.483,1.038,1.312,-0.092,80.000,4694.000,1.000
0.783,-2.241,-4.856,-21.633,-13.215,-9.679,-11.138,-16.366,-0.092,0.789,-0.484,1.129,1.373,-0.153,80.000,4695.000,1.000
3.894,-2.012,-2.702,-17.736,-12.230,-9.830,-10.511,-15.389,-0.093,0.793,-0.485,1.129,1.556,-0.183,80.000,4696.000,1.000
5.327,-1.866,-1.296,-12.400,-10.809,-9.340,-8.636,-12.362,-0.093,0.798,-0.486,1.282,1.465,-0.244,80.000,4697.000,1.000
4.393,-2.324,-1.477,-8.515,-9.854,-9.104,-6.299,-8.509,-0.095,0.798,-0.484,1.343,1.404,-0.336,80.000,4698.000,1.000
1.082,-3.908,-3.490,-7.846,-10.027,-9.747,-4.335,-5.283,-0.096,0.797,-0.483,1.221,1.251,-0.336,80.000,4699.000,1.000
-3.382,-6.584,-6.531,-9.666,-11.177,-11.223,-3.123,-3.235,-0.097,0.800,-0.484,1.251,1.312,-0.336,80.000,4700.000,1.000
-6.910,-9.467,-9.041,-11.753,-12.420,-12.936,-2.519,-1.863,-0.095,0.804,-0.482,1.221,1.221,-0.275,80.000,4701.000,1.000
-8.164,-11.424,-9.817,-12.317,-12.827,-14.341,-2.200,-0.353,-0.094,0.804,-0.485,1.099,1.251,-0.275,80.000,4702.000,1.000
-7.489,-11.818,-8.826,-11.120,-11.962,-15.274,-1.889,1.780,-0.094,0.801,-0.483,1.038,1.282,-0.366,80.000,4703.000,1.000
-5.810,-10.403,-6.644,-8.639,-9.717,-15.565,-1.195,4.611,-0.095,0.802,-0.485,0.854,1.190,-0.458,80.000,4704.000,1.000
-3.593,-7.220,-3.697,-4.816,-6.256,-14.847,0.198,7.749,-0.094,0.802,-0.480,0.793,1.282,-0.305,80.000,4705.000,1.000
-1.502,-3.259,-0.713,-0.078,-2.574,-13.298,1.810,10.119,-0.095,0.803,-0.480,0.671,1.251,-0.336,80.000,4706.000,1.000
-0.782,-0.517,0.909,2.886,-0.516,-12.068,2.257,10.020,-0.095,0.802,-0.483,0.671,1.251,-0.305,80.000,4707.000,1.000
-1.840,-0.363,0.361,1.077,-1.258,-12.193,0.448,6.305,-0.097,0.802,-0.485,0.610,1.221,-0.244,80.000,4708.000,1.000
-3.208,-2.039,-1.240,-4.641,-3.839,-13.254,-3.127,0.091,-0.094,0.801,-0.484,0.580,1.221,-0.305,80.000,4709.000,1.000
-2.851,-3.382,-1.658,-9.471,-5.898,-13.711,-6.629,-5.430,-0.096,0.800,-0.483,0.610,1.190,-0.153,80.000,4710.000,1.000
-0.203,-2.856,0.369,-8.989,-5.835,-12.520,-8.361,-7.416,-0.095,0.800,-0.485,0.458,1.160,-0.092,80.000,4711.000,1.000
3.460,-0.674,4.081,-2.641,-3.982,-10.183,-8.028,-5.539,-0.095,0.800,-0.482,0.458,1.038,-0.061,80.000,4712.000,1.000
6.140,1.699,7.357,5.945,-2.036,-8.257,-6.817,-2.106,-0.094,0.801,-0.482,0.366,1.038,-0.031,80.000,4713.000,1.000
6.351,2.789,8.251,11.482,-1.593,-8.005,-6.325,-0.203,-0.095,0.801,-0.479,0.275,1.068,0.000,80.000,4714.000,1.000
3.888,2.092,6.344,11.072,-2.980,-9.545,-7.354,-1.276,-0.094,0.799,-0.480,0.336,0.977,0.061,80.000,4715.000,1.000
-0.088,0.154,2.848,6.182,-5.255,-12.138,-9.622,-4.361,-0.096,0.798,-0.478,0.214,0.916,0.031,80.000,4716.000,1.000
-3.934,-2.093,-0.589,0.515,-7.164,-14.898,-12.283,-7.437,-0.096,0.795,-0.479,0.214,0.854,0.031,80.000,4717.000,1.000
-6.766,-3.996,-3.041,-3.194,-7.971,-17.120,-14.409,-8.963,-0.095,0.797,-0.479,0.275,0.824,0.092,80.000,4718.000,1.000
-8.914,-5.480,-4.596,-4.754,-7.807,-18.464,-15.366,-8.729,-0.094,0.798,-0.481,0.275,0.854,0.031,80.000,4719.000,1.000
-11.095,-6.871,-5.903,-6.040,-7.519,-19.126,-15.129,-7.865,-0.094,0.795,-0.482,0.305,0.824,-0.031,80.000,4720.000,1.000
-13.258,-8.338,-7.379,-8.798,-7.944,-19.681,-14.297,-7.855,-0.094,0.795,-0.480,0.366,0.854,0.000,80.000,4721.000,1.000
-14.524,-9.617,-8.801,-12.833,-9.224,-20.648,-13.745,-9.483,-0.094,0.796,-0.480,0.244,0.885,0.031,80.000,4722.000,1.000
-14.026,-10.165,-9.472,-15.778,-10.633,-21.971,-14.004,-12.195,-0.095,0.797,-0.482,0.305,0.854,-0.031,80.000,4723.000,1.000
-11.558,-9.608,-8.750,-14.429,-11.004,-22.925,-14.892,-14.218,-0.094,0.797,-0.479,0.305,0.824,-0.061,80.000,4724.000,1.000
-7.803,-8.293,-6.819,-7.809,-9.823,-22.882,-16.003,-14.162,-0.093,0.798,-0.479,0.397,0.793,-0.031,80.000,4725.000,1.000
-4.212,-7.311,-4.960,0.652,-8.004,-22.087,-17.257,-12.690,-0.093,0.799,-0.481,0.336,0.824,-0.031,80.000,4726.000,1.000
-2.425,-7.735,-4.749,5.165,-7.311,-21.471,-18.739,-11.962,-0.092,0.798,-0.479,0.366,0.854,-0.122,80.000,4727.000,1.000
-3.219,-9.717,-6.793,2.356,-8.830,-21.784,-20.203,-13.339,-0.094,0.796,-0.479,0.488,0.854,-0.153,80.000,4728.000,1.000
-5.496,-12.039,-9.877,-5.352,-11.775,-22.726,-20.800,-15.820,-0.094,0.799,-0.482,0.519,0.946,-0.183,80.000,4729.000,1.000
-6.823,-12.808,-11.561,-11.189,-13.952,-23.025,-19.583,-16.896,-0.094,0.796,-0.478,0.549,0.916,-0.214,80.000,4730.000,1.000
-5.831,-11.270,-10.478,-10.557,-13.951,-21.821,-16.773,-15.295,-0.091,0.796,-0.479,0.519,1.007,-0.183,80.000,4731.000,1.000
-3.472,-8.612,-7.660,-5.321,-12.396,-19.592,-13.957,-12.275,-0.091,0.796,-0.479,0.519,1.068,-0.244,80.000,4732.000,1.000
-1.345,-6.517,-5.018,-0.294,-10.614,-17.311,-12.462,-9.882,-0.091,0.795,-0.482,0.610,1.038,-0.183,80.000,4733.000,1.000
-0.010,-5.613,-3.461,1.953,-9.154,-15.346,-12.226,-9.114,-0.092,0.795,-0.480,0.702,1.160,-0.214,80.000,4734.000,1.000
0.652,-5.541,-2.910,1.777,-7.921,-13.438,-12.418,-9.703,-0.093,0.796,-0.480,0.732,1.221,-0.305,80.000,4735.000,1.000
0.605,-5.701,-3.064,0.514,-6.793,-11.252,-12.482,-10.637,-0.094,0.796,-0.480,0.732,1.190,-0.275,80.000,4736.000,1.000
-0.093,-5.509,-3.533,-0.958,-5.716,-8.753,-12.491,-10.975,-0.094,0.797,-0.482,0.793,1.282,-0.366,80.000,4737.000,1.000
-0.723,-4.400,-3.545,-1.980,-4.471,-6.219,-12.750,-10.232,-0.094,0.796,-0.479,0.916,1.282,-0.336,80.000,4738.000,1.000
-0.309,-2.124,-2.154,-1.265,-2.649,-4.024,-13.272,-8.075,-0.094,0.796,-0.481,0.763,1.312,-0.305,80.000,4739.000,1.000
1.372,0.906,0.925,2.171,-0.085,-2.467,-13.743,-4.430,-0.093,0.794,-0.479,0.763,1.343,-0.244,80.000,4740.000,1.000
3.601,3.802,4.826,7.115,2.795,-1.659,-13.862,-0.021,-0.093,0.795,-0.482,0.793,1.282,-0.275,80.000,4741.000,1.000
5.426,5.772,8.024,10.563,5.148,-1.533,-13.591,3.802,-0.094,0.798,-0.480,0.916,1.282,-0.305,80.000,4742.000,1.000
6.175,6.481,9.332,10.381,6.166,-1.949,-13.206,5.856,-0.095,0.795,-0.479,0.977,1.343,-0.244,80.000,4743.000,1.000
5.750,6.136,8.720,7.456,5.597,-2.699,-13.109,5.856,-0.097,0.796,-0.480,1.038,1.404,-0.153,80.000,4744.000,1.000
4.854,5.427,7.344,5.456,4.062,-3.507,-13.511,4.778,-0.096,0.796,-0.483,0.977,1.404,-0.305,80.000,4745.000,1.000
4.425,5.063,6.419,7.408,2.507,-4.263,-14.390,4.179,-0.096,0.795,-0.482,1.038,1.373,-0.275,80.000,4746.000,1.000
4.424,5.104,5.902,11.739,1.147,-5.216,-15.740,4.581,-0.094,0.797,-0.482,1.160,1.404,-0.305,80.000,4747.000,1.000
3.740,4.877,4.679,13.269,-0.622,-6.702,-17.520,4.853,-0.095,0.798,-0.482,1.099,1.373,-0.244,80.000,4748.000,1.000
1.690,3.794,2.164,9.169,-3.071,-8.661,-19.329,3.755,-0.092,0.798,-0.480,1.099,1.373,-0.214,80.000,4749.000,1.000
-0.878,2.040,-0.774,2.318,-5.422,-10.575,-20.495,1.550,-0.094,0.799,-0.480,1.190,1.282,-0.244,80.000,4750.000,1.000
-2.414,0.276,-2.664,-2.194,-6.625,-11.917,-20.689,-0.547,-0.093,0.799,-0.481,1.221,1.404,-0.275,80.000,4751.000,1.000
-2.223,-1.112,-2.796,-1.951,-6.546,-12.627,-20.316,-1.870,-0.094,0.799,-0.481,1.251,1.343,-0.275,80.000,4752.000,1.000
-0.865,-2.224,-1.632,1.964,-6.099,-13.152,-20.149,-2.651,-0.095,0.799,-0.481,1.190,1.404,-0.183,80.000,4753.000,1.000
0.644,-3.333,-0.291,6.955,-6.380,-14.053,-20.603,-3.299,-0.095,0.799,-0.481,1.099,1.343,-0.153,80.000,4754.000,1.000
1.597,-4.596,0.222,11.043,-7.713,-15.528,-21.392,-3.701,-0.097,0.799,-0.478,1.129,1.343,-0.183,80.000,4755.000,1.000
1.636,-5.975,-0.424,13.983,-9.415,-17.152,-21.725,-3.254,-0.094,0.799,-0.480,1.068,1.404,-0.122,80.000,4756.000,1.000
0.536,-7.301,-1.998,16.303,-10.546,-18.189,-20.943,-1.787,-0.095,0.800,-0.479,1.099,1.434,-0.061,80.000,4757.000,1.000
-1.693,-8.501,-4.307,17.009,-10.964,-18.409,-19.242,-0.425,-0.094,0.798,-0.479,1.007,1.434,-0.092,80.000,4758.000,1.000
-4.522,-9.633,-7.261,13.966,-11.235,-18.299,-17.498,-0.615,-0.092,0.795,-0.481,1.038,1.465,-0.031,80.000,4759.000,1.000
-6.960,-10.602,-10.242,7.341,-11.508,-18.324,-16.257,-2.100,-0.091,0.798,-0.485,0.977,1.343,0.000,80.000,4760.000,1.000
-8.080,-11.134,-12.089,0.509,-11.261,-18.480,-15.472,-3.150,-0.091,0.797,-0.483,1.068,1.495,-0.092,80.000,4761.000,1.000
-7.370,-10.974,-11.967,-3.223,-10.237,-18.624,-15.168,-3.031,-0.091,0.796,-0.482,1.099,1.526,-0.061,80.000,4762.000,1.000
-4.869,-10.062,-10.064,-3.355,-8.998,-18.798,-15.708,-3.014,-0.093,0.792,-0.483,1.099,1.465,-0.061,80.000,4763.000,1.000
-1.467,-8.724,-7.521,-1.581,-8.430,-19.111,-17.333,-4.668,-0.090,0.792,-0.481,1.099,1.617,-0.061,80.000,4764.000,1.000
1.347,-7.559,-5.644,0.414,-8.919,-19.413,-19.691,-8.001,-0.090,0.792,-0.479,1.190,1.648,-0.061,80.000,4765.000,1.000
2.697,-6.907,-4.950,2.351,-9.986,-19.178,-21.883,-11.530,-0.092,0.792,-0.480,1.282,1.617,-0.153,80.000,4766.000,1.000
3.055,-6.570,-4.934,5.082,-10.638,-17.796,-22.963,-13.614,-0.093,0.792,-0.477,1.434,1.709,-0.092,80.000,4767.000,1.000
3.336,-6.177,-4.836,8.734,-10.153,-15.045,-22.492,-13.511,-0.096,0.794,-0.481,1.465,1.556,-0.214,80.000,4768.000,1.000
3.583,-5.673,-4.583,11.197,-8.735,-11.478,-20.856,-11.772,-0.095,0.794,-0.479,1.556,1.556,-0.153,80.000,4769.000,1.000
3.168,-5.267,-4.706,9.831,-7.286,-8.282,-18.977,-9.791,-0.094,0.794,-0.480,1.526,1.465,-0.275,80.000,4770.000,1.000
2.073,-4.988,-5.396,4.731,-6.396,-6.505,-17.477,-8.467,-0.093,0.794,-0.481,1.648,1.465,-0.305,80.000,4771.000,1.000
1.083,-4.712,-6.183,-1.318,-5.921,-6.453,-16.277,-7.524,-0.093,0.797,-0.482,1.648,1.434,-0.305,80.000,4772.000,1.000
0.778,-4.484,-6.422,-5.565,-5.421,-7.614,-14.934,-6.092,-0.095,0.799,-0.482,1.526,1.495,-0.397,80.000,4773.000,1.000
1.271,-4.243,-5.536,-6.331,-4.444,-8.919,-13.096,-3.489,-0.093,0.797,-0.483,1.526,1.434,-0.366,80.000,4774.000,1.000
2.654,-3.595,-3.176,-2.745,-2.693,-9.456,-10.892,0.222,-0.093,0.798,-0.482,1.556,1.495,-0.336,80.000,4775.000,1.000
4.727,-2.418,0.141,4.241,-0.554,-9.254,-9.133,3.736,-0.095,0.798,-0.484,1.434,1.404,-0.336,80.000,4776.000,1.000
6.512,-1.279,2.977,11.492,0.844,-9.121,-8.788,5.054,-0.094,0.799,-0.484,1.404,1.373,-0.397,80.000,4777.000,1.000
6.795,-0.891,4.053,15.981,0.639,-9.663,-10.027,3.231,-0.092,0.799,-0.482,1.282,1.495,-0.397,80.000,4778.000,1.000
5.190,-1.380,3.148,16.564,-0.930,-10.773,-12.015,-0.719,-0.092,0.800,-0.485,1.221,1.495,-0.427,80.000,4779.000,1.000
2.578,-2.140,1.083,13.714,-2.765,-11.828,-13.568,-4.749,-0.093,0.800,-0.483,1.312,1.373,-0.366,80.000,4780.000,1.000
0.503,-2.313,-0.766,9.204,-3.692,-12.072,-13.846,-7.219,-0.094,0.801,-0.482,1.282,1.434,-0.366,80.000,4781.000,1.000
0.034,-1.498,-1.237,5.438,-3.155,-11.098,-12.740,-7.672,-0.093,0.798,-0.484,1.282,1.465,-0.397,80.000,4782.000,1.000
1.132,-0.031,-0.165,3.579,-1.514,-9.202,-10.868,-6.801,-0.092,0.796,-0.484,1.282,1.465,-0.366,80.000,4783.000,1.000
2.977,1.426,1.594,2.727,0.299,-7.140,-9.119,-5.821,-0.094,0.796,-0.484,1.221,1.404,-0.183,80.000,4784.000,1.000
4.719,2.524,3.069,1.697,1.553,-5.463,-8.049,-5.540,-0.095,0.795,-0.484,1.160,1.465,-0.183,80.000,4785.000,1.000
5.800,3.321,3.857,0.551,2.132,-4.295,-7.637,-5.894,-0.093,0.797,-0.480,1.190,1.343,-0.031,80.000,4786.000,1.000
5.908,3.836,3.941,-0.114,2.288,-3.618,-7.530,-6.324,-0.094,0.798,-0.485,1.160,1.282,-0.061,80.000,4787.000,1.000
5.076,3.937,3.427,0.184,2.397,-3.337,-7.300,-6.221,-0.094,0.797,-0.481,1.068,1.282,-0.092,80.000,4788.000,1.000
3.553,3.583,2.451,1.701,2.779,-3.167,-6.649,-5.295,-0.094,0.796,-0.487,1.068,1.160,-0.061,80.000,4789.000,1.000
1.436,2.859,1.018,3.724,3.435,-2.783,-5.590,-3.979,-0.094,0.796,-0.486,1.068,1.129,-0.122,80.000,4790.000,1.000
-0.960,2.083,-0.617,5.028,4.292,-1.975,-4.271,-2.996,-0.094,0.797,-0.486,0.977,1.129,-0.153,80.000,4791.000,1.000
-2.544,1.933,-1.478,5.731,5.650,-0.678,-2.745,-2.402,-0.093,0.796,-0.486,0.977,1.099,-0.092,80.000,4792.000,1.000
-2.265,2.910,-0.635,7.001,7.706,0.777,-1.312,-1.807,-0.094,0.796,-0.485,0.977,1.007,-0.031,80.000,4793.000,1.000
-0.477,4.560,1.511,8.701,9.784,1.646,-0.701,-1.337,-0.093,0.797,-0.482,1.038,0.977,0.031,80.000,4794.000,1.000
1.308,5.747,3.329,8.871,10.672,1.448,-1.387,-1.587,-0.093,0.795,-0.479,1.068,0.916,-0.061,80.000,4795.000,1.000
2.070,5.812,3.458,5.952,9.776,0.587,-2.960,-2.721,-0.093,0.794,-0.480,1.099,0.916,-0.061,80.000,4796.000,1.000
2.098,5.224,1.957,0.881,7.711,0.093,-4.415,-4.006,-0.094,0.794,-0.484,1.099,1.007,-0.092,80.000,4797.000,1.000
2.203,5.007,-0.012,-3.575,5.709,0.738,-5.024,-4.355,-0.093,0.794,-0.485,1.099,0.977,-0.061,80.000,4798.000,1.000
2.694,5.650,-1.374,-5.489,4.576,2.423,-4.873,-3.484,-0.094,0.791,-0.483,1.129,0.885,-0.153,80.000,4799.000,1.000
3.370,6.727,-1.775,-5.034,4.395,4.403,-4.512,-2.267,-0.094,0.794,-0.482,1.129,0.916,-0.183,80.000,4800.000,1.000
4.140,7.594,-1.235,-3.129,5.056,6.114,-4.138,-1.578,-0.092,0.795,-0.479,1.251,0.824,-0.183,80.000,4801.000,1.000
5.077,8.083,0.164,-0.300,6.549,7.513,-3.438,-1.233,-0.093,0.794,-0.485,1.221,0.916,-0.214,80.000,4802.000,1.000
6.078,8.481,2.152,2.857,8.670,8.698,-2.214,-0.566,-0.094,0.795,-0.483,1.282,0.885,-0.244,80.000,4803.000,1.000
7.114,9.259,4.352,5.473,10.914,9.627,-0.751,0.360,-0.093,0.797,-0.482,1.312,0.854,-0.244,80.000,4804.000,1.000
8.409,10.767,6.484,6.813,12.739,10.237,0.500,0.710,-0.094,0.795,-0.483,1.373,0.763,-0.336,80.000,4805.000,1.000
9.966,12.829,8.362,6.588,13.812,10.540,1.288,0.006,-0.094,0.794,-0.483,1.312,0.763,-0.336,80.000,4806.000,1.000
11.390,14.743,9.915,5.267,14.099,10.594,1.578,-1.202,-0.094,0.794,-0.483,1.495,0.671,-0.366,80.000,4807.000,1.000
12.361,15.791,11.136,3.569,13.701,10.352,1.291,-2.118,-0.094,0.796,-0.483,1.434,0.793,-0.336,80.000,4808.000,1.000
12.854,15.650,11.860,1.389,12.590,9.476,0.130,-2.732,-0.095,0.794,-0.485,1.434,0.702,-0.366,80.000,4809.000,1.000
12.947,14.483,11.936,-1.527,10.809,7.595,-1.991,-3.432,-0.095,0.795,-0.484,1.434,0.671,-0.336,80.000,4810.000,1.000
12.788,12.731,11.631,-4.005,8.837,4.867,-4.475,-3.978,-0.095,0.795,-0.483,1.495,0.702,-0.214,80.000,4811.000,1.000
12.639,10.648,11.402,-4.287,7.253,1.978,-6.442,-3.786,-0.096,0.794,-0.481,1.373,0.641,-0.366,80.000,4812.000,1.000
12.649,8.192,11.313,-2.152,6.215,-0.399,-7.409,-2.802,-0.095,0.795,-0.481,1.282,0.610,-0.397,80.000,4813.000,1.000
12.398,5.252,10.846,0.905,5.522,-2.070,-7.427,-1.353,-0.097,0.794,-0.485,1.373,0.610,-0.275,80.000,4814.000,1.000
11.001,1.870,9.324,3.334,4.997,-3.312,-6.866,0.496,-0.096,0.795,-0.485,1.373,0.580,-0.183,80.000,4815.000,1.000
8.301,-1.389,6.814,5.144,4.809,-4.329,-6.125,2.867,-0.096,0.794,-0.485,1.343,0.519,-0.183,80.000,4816.000,1.000
5.433,-3.540,4.270,7.040,5.149,-4.981,-5.584,5.075,-0.097,0.798,-0.483,1.373,0.549,-0.122,80.000,4817.000,1.000
3.615,-4.086,2.473,8.143,5.604,-5.123,-5.665,5.379,-0.095,0.796,-0.484,1.343,0.549,-0.092,80.000,4818.000,1.000
3.007,-3.453,1.434,6.716,5.432,-4.908,-6.627,2.718,-0.097,0.796,-0.485,1.343,0.458,-0.092,80.000,4819.000,1.000
2.941,-2.542,0.718,2.765,4.269,-4.830,-8.531,-1.956,-0.094,0.796,-0.484,1.251,0.458,-0.122,80.000,4820.000,1.000
2.655,-2.171,-0.193,-1.938,2.291,-5.504,-11.301,-6.529,-0.093,0.794,-0.483,1.251,0.549,-0.153,80.000,4821.000,1.000
1.728,-2.697,-1.526,-5.504,0.145,-6.982,-14.342,-9.110,-0.094,0.795,-0.482,1.160,0.519,-0.092,80.000,4822.000,1.000
0.147,-3.781,-2.904,-6.683,-1.215,-8.352,-16.422,-8.822,-0.095,0.793,-0.483,1.068,0.427,-0.061,80.000,4823.000,1.000
-1.781,-4.623,-3.674,-5.426,-1.088,-8.350,-16.494,-6.211,-0.093,0.794,-0.483,1.129,0.488,0.000,80.000,4824.000,1.000
-3.510,-4.559,-3.549,-3.185,0.460,-6.481,-14.590,-2.929,-0.093,0.794,-0.481,1.038,0.519,0.000,80.000,4825.000,1.000
-4.431,-3.456,-2.753,-1.646,2.643,-3.521,-11.866,-0.604,-0.093,0.797,-0.482,1.099,0.580,0.092,80.000,4826.000,1.000
-4.179,-1.658,-1.647,-1.128,4.508,-0.868,-9.738,0.313,-0.093,0.796,-0.484,0.946,0.580,0.092,80.000,4827.000,1.000
-2.738,0.447,-0.357,-0.480,5.582,0.698,-8.771,0.656,-0.093,0.795,-0.484,1.007,0.549,-0.031,80.000,4828.000,1.000
-0.337,2.746,1.137,1.327,6.072,1.557,-8.419,1.438,-0.092,0.795,-0.484,0.946,0.580,0.031,80.000,4829.000,1.000
2.411,5.063,2.551,3.667,6.412,2.562,-7.776,2.736,-0.093,0.794,-0.485,0.946,0.519,0.000,80.000,4830.000,1.000
4.367,6.760,3.196,4.810,6.766,4.076,-6.385,3.626,-0.092,0.794,-0.483,0.885,0.549,0.092,80.000,4831.000,1.000
4.231,6.988,2.340,3.297,6.875,5.657,-4.542,2.813,-0.094,0.795,-0.483,0.854,0.549,0.031,80.000,4832.000,1.000
1.392,5.259,-0.327,-1.361,6.350,6.505,-3.091,-0.328,-0.093,0.795,-0.484,0.824,0.732,0.031,80.000,4833.000,1.000
-3.349,1.936,-4.145,-7.808,5.276,6.312,-2.658,-4.819,-0.092,0.795,-0.486,0.793,0.854,-0.122,80.000,4834.000,1.000
-8.061,-1.744,-7.488,-12.724,4.422,5.688,-3.017,-8.394,-0.091,0.796,-0.485,0.763,0.885,-0.122,80.000,4835.000,1.000
-10.955,-4.358,-8.798,-12.862,4.567,5.639,-3.390,-9.128,-0.092,0.797,-0.484,0.610,0.885,-0.214,80.000,4836.000,1.000
-11.433,-5.227,-7.824,-7.951,5.646,6.594,-3.302,-6.978,-0.093,0.796,-0.485,0.702,0.977,-0.214,80.000,4837.000,1.000
-10.119,-4.746,-5.792,-1.458,6.670,8.002,-2.940,-3.743,-0.094,0.796,-0.487,0.641,0.946,-0.244,80.000,4838.000,1.000
-8.244,-3.809,-4.290,2.492,6.589,8.939,-2.679,-1.407,-0.092,0.795,-0.485,0.580,1.007,-0.397,80.000,4839.000,1.000
-6.973,-3.086,-4.115,2.815,5.102,8.947,-2.642,-0.639,-0.094,0.796,-0.484,0.610,1.099,-0.397,80.000,4840.000,1.000
-6.885,-2.913,-5.191,0.930,2.573,8.113,-2.919,-1.066,-0.093,0.794,-0.482,0.702,1.038,-0.458,80.000,4841.000,1.000
-7.652,-3.373,-6.963,-2.170,-0.442,6.721,-3.803,-2.506,-0.094,0.796,-0.486,0.641,1.251,-0.366,80.000,4842.000,1.000
-8.321,-4.065,-8.522,-6.022,-3.234,5.145,-5.394,-4.969,-0.094,0.797,-0.487,0.671,1.312,-0.397,80.000,4843.000,1.000
-8.310,-4.324,-8.973,-9.161,-4.944,3.794,-7.205,-7.704,-0.095,0.796,-0.484,0.549,1.190,-0.397,80.000,4844.000,1.000
-8.064,-4.037,-8.266,-10.342,-5.113,2.807,-8.508,-9.562,-0.097,0.798,-0.483,0.519,1.343,-0.458,80.000,4845.000,1.000
-8.355,-3.774,-7.218,-10.264,-4.002,2.066,-8.783,-10.048,-0.096,0.798,-0.485,0.549,1.373,-0.458,80.000,4846.000,1.000
-9.085,-3.862,-6.342,-9.799,-2.047,1.620,-7.774,-9.054,-0.096,0.795,-0.483,0.549,1.282,-0.488,80.000,4847.000,1.000
-9.332,-3.897,-5.262,-8.169,0.500,1.684,-5.689,-6.352,-0.098,0.795,-0.483,0.519,1.282,-0.519,80.000,4848.000,1.000
-8.439,-3.393,-3.582,-4.825,3.097,2.161,-3.466,-2.408,-0.098,0.793,-0.484,0.488,1.312,-0.427,80.000,4849.000,1.000
-6.499,-2.368,-1.640,-1.377,4.722,2.554,-2.340,1.044,-0.098,0.794,-0.481,0.580,1.190,-0.397,80.000,4850.000,1.000
-4.146,-1.246,-0.219,-0.211,4.528,2.342,-2.947,2.128,-0.095,0.795,-0.479,0.580,1.251,-0.488,80.000,4851.000,1.000
-2.558,-0.660,-0.150,-2.613,2.351,1.221,-5.104,0.223,-0.095,0.795,-0.478,0.580,1.282,-0.519,80.000,4852.000,1.000
-2.988,-1.107,-1.882,-8.159,-1.232,-0.692,-8.131,-3.768,-0.098,0.799,-0.481,0.549,1.221,-0.488,80.000,4853.000,1.000
-5.529,-2.429,-4.872,-14.477,-4.955,-2.575,-10.961,-7.939,-0.097,0.796,-0.481,0.549,1.190,-0.427,80.000,4854.000,1.000
-9.027,-4.078,-7.947,-18.721,-7.541,-3.316,-12.526,-10.696,-0.098,0.796,-0.484,0.519,1.221,-0.366,80.000,4855.000,1.000
-12.441,-5.840,-10.469,-19.983,-8.661,-2.462,-12.438,-11.875,-0.097,0.796,-0.482,0.519,1.129,-0.244,80.000,4856.000,1.000
-15.475,-7.730,-12.475,-19.190,-8.821,-0.489,-11.088,-12.118,-0.097,0.797,-0.483,0.580,1.190,-0.275,80.000,4857.000,1.000
-17.904,-9.414,-13.969,-17.550,-8.594,1.683,-9.258,-11.987,-0.095,0.797,-0.481,0.549,1.099,-0.275,80.000,4858.000,1.000
-19.114,-10.170,-14.653,-15.997,-8.271,3.262,-7.775,-12.110,-0.095,0.796,-0.483,0.610,1.038,-0.244,80.000,4859.000,1.000
-18.651,-9.418,-14.205,-14.971,-7.809,4.022,-7.083,-12.855,-0.097,0.794,-0.482,0.610,1.099,-0.214,80.000,4860.000,1.000
-16.794,-7.311,-12.583,-14.060,-6.906,4.254,-7.047,-13.629,-0.096,0.795,-0.482,0.641,1.099,-0.214,80.000,4861.000,1.000
-14.111,-4.708,-10.007,-11.925,-5.299,4.176,-7.275,-13.246,-0.099,0.796,-0.481,0.641,1.160,-0.153,80.000,4862.000,1.000
-10.812,-2.474,-6.875,-7.306,-3.151,3.598,-7.553,-11.235,-0.098,0.797,-0.479,0.549,1.038,-0.031,80.000,4863.000,1.000
-7.273,-1.079,-4.026,-1.326,-1.273,2.229,-8.027,-8.607,-0.097,0.796,-0.481,0.641,0.977,-0.031,80.000,4864.000,1.000
-4.718,-0.750,-2.707,2.180,-0.734,0.135,-9.011,-6.955,-0.096,0.795,-0.481,0.641,1.038,-0.031,80.000,4865.000,1.000
-4.266,-1.340,-3.517,0.337,-1.856,-1.999,-10.452,-6.801,-0.096,0.795,-0.484,0.763,1.038,0.031,80.000,4866.000,1.000
-5.408,-1.973,-5.565,-5.657,-3.741,-3.035,-11.701,-7.352,-0.097,0.796,-0.482,0.732,1.007,0.000,80.000,4867.000,1.000
-6.503,-1.701,-7.270,-11.853,-5.118,-2.248,-12.014,-7.634,-0.099,0.796,-0.482,0.793,1.007,-0.031,80.000,4868.000,1.000
-6.667,-0.599,-7.792,-14.694,-5.496,-0.113,-11.302,-7.214,-0.097,0.796,-0.480,0.793,1.038,0.000,80.000,4869.000,1.000
-6.224,0.462,-7.239,-12.875,-5.255,2.114,-10.259,-6.073,-0.097,0.795,-0.483,0.763,1.007,0.031,80.000,4870.000,1.000
-5.661,0.866,-6.034,-7.790,-5.021,3.469,-9.744,-4.443,-0.095,0.797,-0.482,0.824,0.885,-0.031,80.000,4871.000,1.000
-5.245,0.502,-4.651,-2.309,-5.218,3.743,-10.062,-2.684,-0.096,0.796,-0.484,0.854,0.885,-0.092,80.000,4872.000,1.000
-5.391,-0.543,-3.615,1.310,-5.981,3.254,-10.821,-1.079,-0.095,0.797,-0.482,0.824,0.946,-0.122,80.000,4873.000,1.000
-6.437,-1.984,-3.287,2.041,-7.227,2.452,-11.470,-0.044,-0.094,0.796,-0.479,0.824,1.038,-0.092,80.000,4874.000,1.000
-8.035,-3.362,-3.669,-0.565,-8.720,1.583,-11.776,-0.286,-0.095,0.796,-0.479,0.854,1.099,-0.092,80.000,4875.000,1.000
-9.484,-4.422,-4.558,-6.203,-10.063,0.605,-11.746,-2.087,-0.096,0.795,-0.482,0.824,1.038,-0.153,80.000,4876.000,1.000
-10.650,-5.344,-5.821,-13.153,-10.874,-0.599,-11.425,-4.767,-0.096,0.796,-0.479,0.916,1.007,-0.153,80.000,4877.000,1.000
-11.925,-6.368,-7.350,-18.750,-10.974,-1.898,-10.891,-7.204,-0.097,0.798,-0.479,0.946,1.007,-0.122,80.000,4878.000,1.000
-13.253,-7.217,-8.724,-20.527,-10.171,-2.739,-10.114,-8.431,-0.097,0.795,-0.481,0.977,1.038,-0.122,80.000,4879.000,1.000
-13.952,-7.197,-9.326,-17.419,-8.195,-2.481,-8.909,-7.837,-0.094,0.795,-0.481,0.977,0.977,-0.153,80.000,4880.000,1.000
-13.770,-6.041,-9.060,-10.942,-5.207,-1.034,-7.251,-5.414,-0.096,0.797,-0.482,0.916,1.038,-0.244,80.000,4881.000,1.000
-13.525,-4.490,-8.675,-4.922,-2.091,0.901,-5.555,-1.934,-0.096,0.798,-0.481,0.916,1.007,-0.214,80.000,4882.000,1.000
-14.193,-3.722,-9.024,-2.886,0.130,2.328,-4.464,1.294,-0.097,0.797,-0.481,0.885,0.977,-0.153,80.000,4883.000,1.000
-15.710,-4.175,-10.006,-5.022,1.183,2.793,-4.227,3.405,-0.096,0.798,-0.480,0.946,1.007,-0.183,80.000,4884.000,1.000
-17.250,-5.283,-10.657,-8.456,1.540,2.606,-4.489,4.472,-0.095,0.798,-0.481,0.977,1.038,-0.122,80.000,4885.000,1.000
-18.496,-6.488,-10.486,-11.104,1.403,2.116,-4.987,4.483,-0.094,0.798,-0.480,0.916,1.068,-0.275,80.000,4886.000,1.000
-19.866,-7.834,-10.118,-13.692,0.371,1.194,-5.983,2.846,-0.095,0.798,-0.481,1.038,1.038,-0.183,80.000,4887.000,1.000
-21.584,-9.408,-10.399,-17.475,-1.689,-0.320,-7.693,-0.384,-0.094,0.797,-0.481,0.977,1.038,-0.244,80.000,4888.000,1.000
-23.227,-10.910,-11.458,-21.837,-4.143,-2.167,-9.743,-3.833,-0.093,0.796,-0.480,1.007,1.068,-0.275,80.000,4889.000,1.000
-24.088,-11.891,-12.683,-24.670,-6.090,-3.798,-11.338,-5.690,-0.095,0.797,-0.480,0.885,1.068,-0.305,80.000,4890.000,1.000
-23.438,-11.924,-13.096,-24.083,-6.946,-4.664,-11.712,-4.859,-0.095,0.798,-0.480,0.977,1.068,-0.336,80.000,4891.000,1.000
-20.768,-10.752,-11.809,-19.268,-6.593,-4.501,-10.541,-1.396,-0.095,0.798,-0.479,1.038,1.007,-0.214,80.000,4892.000,1.000
-16.474,-8.715,-8.713,-10.518,-5.454,-3.692,-8.272,3.701,-0.095,0.799,-0.481,1.160,1.007,-0.214,80.000,4893.000,1.000
-12.248,-6.972,-5.168,-0.458,-4.727,-3.362,-6.182,8.473,-0.096,0.798,-0.481,1.129,1.007,-0.244,80.000,4894.000,1.000
-10.125,-6.954,-3.573,5.433,-6.003,-4.668,-5.786,10.204,-0.096,0.799,-0.481,1.068,1.068,-0.244,80.000,4895.000,1.000
-10.670,-9.204,-5.460,3.040,-9.802,-7.729,-7.656,7.208,-0.096,0.801,-0.482,1.068,1.007,-0.244,80.000,4896.000,1.000
-12.556,-12.915,-10.170,-6.121,-14.802,-11.492,-10.836,0.676,-0.096,0.798,-0.484,1.068,0.946,-0.214,80.000,4897.000,1.000
-14.123,-16.730,-15.646,-16.551,-18.851,-14.650,-13.522,-5.817,-0.095,0.797,-0.485,1.068,0.946,-0.275,80.000,4898.000,1.000
-14.563,-19.604,-19.815,-22.890,-20.333,-16.363,-14.193,-8.714,-0.098,0.799,-0.482,1.068,0.977,-0.122,80.000,4899.000,1.000
-13.609,-20.937,-21.320,-22.567,-18.847,-16.296,-12.364,-7.015,-0.098,0.799,-0.480,1.038,0.977,-0.214,80.000,4900.000,1.000
-11.272,-20.521,-19.920,-16.932,-15.235,-14.481,-8.664,-2.748,-0.098,0.800,-0.479,1.007,1.068,-0.122,80.000,4901.000,1.000
-8.268,-18.660,-16.531,-10.047,-11.009,-11.335,-4.337,1.264,-0.097,0.799,-0.479,0.977,1.129,-0.122,80.000,4902.000,1.000
-5.858,-16.115,-12.623,-5.397,-7.459,-7.720,-0.609,3.707,-0.098,0.800,-0.482,0.854,1.007,-0.122,80.000,4903.000,1.000
-4.819,-13.755,-9.394,-3.520,-5.154,-4.775,1.781,4.931,-0.095,0.799,-0.483,0.793,1.007,-0.122,80.000,4904.000,1.000
-4.923,-12.154,-7.421,-2.660,-4.071,-3.425,2.687,5.781,-0.097,0.799,-0.479,0.854,0.977,-0.031,80.000,4905.000,1.000
-5.517,-11.433,-6.816,-1.075,-4.019,-3.899,2.305,6.698,-0.096,0.799,-0.481,0.885,0.977,0.061,80.000,4906.000,1.000
-6.221,-11.350,-7.483,1.446,-4.843,-5.623,0.945,7.561,-0.097,0.798,-0.481,0.824,1.068,0.061,80.000,4907.000,1.000
-6.897,-11.386,-9.118,3.648,-6.243,-7.438,-0.873,7.965,-0.095,0.797,-0.480,0.793,1.007,0.061,80.000,4908.000,1.000
-7.302,-10.902,-11.109,3.833,-7.658,-8.212,-2.414,7.587,-0.094,0.798,-0.479,0.854,1.068,0.153,80.000,4909.000,1.000
-7.372,-9.753,-12.842,0.900,-8.661,-7.689,-3.189,6.305,-0.094,0.799,-0.482,0.916,1.129,0.153,80.000,4910.000,1.000
-7.559,-8.579,-14.088,-4.931,-9.279,-6.626,-3.256,4.209,-0.094,0.799,-0.480,1.007,1.160,0.183,80.000,4911.000,1.000
-8.142,-7.971,-14.748,-11.660,-9.563,-5.927,-2.892,1.897,-0.094,0.798,-0.477,0.977,1.160,0.275,80.000,4912.000,1.000
-8.401,-7.664,-14.447,-16.318,-9.201,-5.873,-2.267,0.373,-0.094,0.797,-0.479,1.007,1.160,0.244,80.000,4913.000,1.000
-7.221,-6.942,-12.805,-16.843,-7.925,-6.153,-1.589,0.321,-0.092,0.797,-0.483,1.038,1.190,0.122,80.000,4914.000,1.000
-4.485,-5.572,-10.056,-13.389,-6.071,-6.358,-1.236,1.668,-0.094,0.796,-0.479,1.068,1.221,0.092,80.000,4915.000,1.000
-1.371,-4.084,-7.201,-8.260,-4.485,-6.311,-1.504,3.788,-0.094,0.796,-0.479,1.038,1.221,0.061,80.000,4916.000,1.000
0.763,-3.198,-5.388,-4.378,-3.891,-6.040,-2.301,5.793,-0.094,0.794,-0.479,1.038,1.282,0.000,80.000,4917.000,1.000
1.260,-3.236,-5.164,-3.302,-4.440,-5.632,-3.255,6.641,-0.092,0.792,-0.480,1.160,1.312,-0.061,80.000,4918.000,1.000
0.063,-4.029,-6.257,-4.433,-5.688,-5.140,-3.996,5.618,-0.094,0.791,-0.479,1.190,1.282,-0.092,80.000,4919.000,1.000
-2.316,-4.979,-7.750,-5.534,-6.729,-4.459,-4.143,3.254,-0.092,0.789,-0.480,1.282,1.373,-0.122,80.000,4920.000,1.000
-4.608,-5.319,-8.451,-4.151,-6.577,-3.446,-3.304,1.293,-0.093,0.790,-0.480,1.434,1.312,-0.183,80.000,4921.000,1.000
-5.519,-4.782,-7.662,0.062,-5.036,-2.436,-1.506,1.030,-0.092,0.789,-0.480,1.526,1.373,-0.275,80.000,4922.000,1.000
-4.977,-3.960,-5.887,4.107,-3.250,-2.383,0.437,1.880,-0.092,0.791,-0.480,1.740,1.465,-0.305,80.000,4923.000,1.000
-4.104,-3.685,-4.485,4.010,-2.904,-4.091,1.402,2.075,-0.093,0.791,-0.479,1.678,1.434,-0.397,80.000,4924.000,1.000
-3.878,-4.183,-4.475,-1.491,-4.744,-7.354,0.837,0.570,-0.094,0.790,-0.480,1.831,1.343,-0.427,80.000,4925.000,1.000
-4.233,-4.932,-5.744,-9.965,-7.968,-11.006,-0.830,-2.018,-0.093,0.795,-0.483,1.923,1.404,-0.488,80.000,4926.000,1.000
-4.499,-5.209,-7.326,-17.356,-10.927,-13.642,-2.572,-4.190,-0.093,0.794,-0.480,1.953,1.465,-0.488,80.000,4927.000,1.000
-4.187,-4.589,-8.194,-20.655,-12.260,-14.302,-3.489,-4.970,-0.094,0.793,-0.481,2.167,1.404,-0.580,80.000,4928.000,1.000
-3.090,-2.987,-7.734,-19.016,-11.532,-12.849,-3.319,-4.474,-0.094,0.795,-0.482,2.167,1.495,-0.641,80.000,4929.000,1.000
-1.212,-0.621,-5.905,-13.481,-9.304,-10.023,-2.446,-3.492,-0.094,0.800,-0.480,2.167,1.434,-0.763,80.000,4930.000,1.000
0.916,1.875,-3.335,-6.351,-6.745,-7.014,-1.471,-2.686,-0.097,0.799,-0.485,2.197,1.373,-0.641,80.000,4931.000,1.000
2.207,3.420,-1.194,-0.359,-5.033,-4.854,-0.784,-2.113,-0.098,0.801,-0.484,2.106,1.373,-0.671,80.000,4932.000,1.000
1.935,3.021,-0.579,2.625,-4.853,-4.108,-0.537,-1.701,-0.100,0.803,-0.485,1.984,1.312,-0.763,80.000,4933.000,1.000
0.596,0.661,-1.615,2.888,-6.077,-4.713,-0.707,-1.700,-0.100,0.803,-0.483,1.801,1.221,-0.732,80.000,4934.000,1.000
-0.735,-2.673,-3.483,2.108,-7.915,-6.008,-1.035,-2.275,-0.096,0.803,-0.482,1.678,1.160,-0.671,80.000,4935.000,1.000
-1.790,-5.952,-5.485,0.644,-9.649,-7.225,-1.185,-3.285,-0.097,0.804,-0.483,1.709,1.099,-0.549,80.000,4936.000,1.000
-2.992,-8.640,-7.508,-2.783,-11.011,-7.907,-0.991,-4.477,-0.098,0.801,-0.486,1.617,1.007,-0.458,80.000,4937.000,1.000
-4.310,-10.480,-9.435,-8.455,-11.937,-7.918,-0.498,-5.553,-0.097,0.802,-0.484,1.465,1.007,-0.397,80.000,4938.000,1.000
-5.240,-11.451,-10.897,-14.486,-12.421,-7.460,0.054,-6.250,-0.096,0.801,-0.483,1.404,1.038,-0.305,80.000,4939.000,1.000
-5.710,-11.971,-11.723,-18.385,-12.578,-7.126,0.349,-6.377,-0.094,0.801,-0.484,1.434,1.038,-0.244,80.000,4940.000,1.000
-6.132,-12.615,-12.071,-18.778,-12.458,-7.512,0.351,-5.704,-0.096,0.801,-0.485,1.312,1.007,-0.183,80.000,4941.000,1.000
-6.549,-13.421,-11.956,-15.721,-11.811,-8.635,0.500,-4.051,-0.099,0.798,-0.483,1.251,0.977,-0.122,80.000,4942.000,1.000
-6.454,-13.731,-11.101,-10.333,-10.301,-9.879,1.269,-1.667,-0.099,0.798,-0.482,1.190,1.007,-0.122,80.000,4943.000,1.000
-5.530,-12.869,-9.420,-4.356,-8.026,-10.562,2.585,0.746,-0.097,0.797,-0.479,1.190,0.916,0.000,80.000,4944.000,1.000
-3.865,-10.688,-7.185,0.764,-5.544,-10.427,3.854,2.639,-0.098,0.798,-0.483,1.099,0.854,0.061,80.000,4945.000,1.000
-1.474,-7.445,-4.653,4.764,-3.419,-9.638,4.459,3.857,-0.099,0.797,-0.482,1.129,0.763,0.153,80.000,4946.000,1.000
1.545,-3.687,-2.094,7.986,-1.944,-8.516,4.182,4.298,-0.096,0.796,-0.481,1.068,0.610,0.122,80.000,4947.000,1.000
4.434,-0.156,-0.035,10.380,-1.037,-7.204,3.458,4.182,-0.096,0.796,-0.483,0.977,0.610,0.214,80.000,4948.000,1.000
6.102,2.623,0.994,11.573,-0.251,-5.517,3.218,4.395,-0.096,0.795,-0.484,0.885,0.671,0.244,80.000,4949.000,1.000
5.932,4.407,0.712,10.849,0.701,-3.362,4.041,5.381,-0.094,0.796,-0.481,0.885,0.641,0.275,80.000,4950.000,1.000
4.022,4.879,-0.996,7.239,1.399,-1.281,5.427,6.051,-0.095,0.795,-0.477,0.824,0.610,0.336,80.000,4951.000,1.000
0.899,3.672,-4.005,0.913,1.074,-0.199,6.212,4.874,-0.095,0.794,-0.480,0.824,0.671,0.275,80.000,4952.000,1.000
-2.665,0.924,-7.631,-5.876,-0.438,-0.515,5.801,1.821,-0.095,0.794,-0.482,0.702,0.610,0.244,80.000,4953.000,1.000
-5.575,-2.307,-10.561,-10.102,-2.228,-1.638,4.890,-1.328,-0.095,0.793,-0.484,0.793,0.671,0.275,80.000,4954.000,1.000
-6.688,-4.491,-11.460,-10.163,-2.914,-2.552,4.765,-2.507,-0.096,0.795,-0.482,0.671,0.641,0.275,80.000,4955.000,1.000
-5.680,-4.781,-9.914,-6.721,-1.788,-2.777,5.875,-1.089,-0.093,0.796,-0.482,0.702,0.732,0.244,80.000,4956.000,1.000
-3.446,-3.591,-6.734,-1.730,0.635,-2.617,7.313,1.708,-0.092,0.796,-0.482,0.793,0.763,0.214,80.000,4957.000,1.000
-1.273,-1.862,-3.259,2.988,3.205,-2.473,7.741,4.059,-0.093,0.797,-0.481,0.732,0.732,0.122,80.000,4958.000,1.000
0.262,-0.073,-0.480,6.462,5.113,-2.194,6.683,5.135,-0.092,0.795,-0.480,0.671,0.824,0.092,80.000,4959.000,1.000
1.319,1.668,1.190,8.579,6.164,-1.338,4.770,5.283,-0.093,0.796,-0.483,0.763,0.885,0.000,80.000,4960.000,1.000
2.151,3.060,1.712,9.697,6.342,0.118,2.862,4.857,-0.092,0.797,-0.482,0.824,0.885,0.061,80.000,4961.000,1.000
2.922,3.767,1.347,10.021,5.643,1.687,1.360,3.620,-0.091,0.794,-0.478,0.824,0.977,0.000,80.000,4962.000,1.000
3.836,3.871,0.591,9.348,4.334,2.923,0.326,1.428,-0.091,0.794,-0.484,0.824,1.007,-0.061,80.000,4963.000,1.000
4.951,3.740,-0.096,7.700,3.019,3.750,-0.215,-1.071,-0.093,0.794,-0.483,0.854,1.038,-0.183,80.000,4964.000,1.000
5.980,3.593,-0.470,5.971,2.374,4.304,-0.175,-2.522,-0.094,0.794,-0.481,0.977,1.129,-0.183,80.000,4965.000,1.000
6.604,3.328,-0.481,5.249,2.746,4.554,0.461,-1.848,-0.092,0.792,-0.483,0.916,1.160,-0.244,80.000,4966.000,1.000
6.887,2.689,-0.224,5.449,3.852,4.147,1.461,0.530,-0.093,0.794,-0.480,1.038,1.312,-0.214,80.000,4967.000,1.000
7.005,1.528,0.047,5.330,4.984,2.788,2.563,2.971,-0.093,0.794,-0.478,1.068,1.190,-0.214,80.000,4968.000,1.000
6.684,-0.045,0.001,3.918,5.562,0.755,3.759,4.215,-0.093,0.794,-0.479,1.068,1.251,-0.275,80.000,4969.000,1.000
5.518,-1.593,-0.485,1.564,5.450,-1.165,5.115,4.186,-0.097,0.796,-0.481,1.129,1.282,-0.244,80.000,4970.000,1.000
3.834,-2.454,-1.031,-0.264,4.901,-2.323,6.487,3.525,-0.097,0.795,-0.480,1.221,1.190,-0.244,80.000,4971.000,1.000
2.594,-2.213,-1.027,-0.318,4.201,-2.771,7.481,2.836,-0.095,0.796,-0.478,1.282,1.343,-0.244,80.000,4972.000,1.000
2.332,-1.120,-0.306,1.247,3.250,-3.143,7.552,2.197,-0.095,0.796,-0.477,1.251,1.251,-0.305,80.000,4973.000,1.000
2.790,0.140,0.763,3.322,1.743,-3.885,6.364,1.258,-0.094,0.795,-0.479,1.312,1.282,-0.336,80.000,4974.000,1.000
3.600,1.114,1.827,5.004,-0.250,-4.678,4.204,-0.273,-0.097,0.796,-0.483,1.343,1.251,-0.275,80.000,4975.000,1.000
4.555,1.776,2.696,5.766,-2.281,-4.804,1.813,-2.435,-0.095,0.795,-0.482,1.282,1.251,-0.275,80.000,4976.000,1.000
5.219,2.132,3.144,5.362,-4.007,-3.925,-0.171,-4.942,-0.094,0.794,-0.481,1.343,1.221,-0.214,80.000,4977.000,1.000
5.161,2.157,3.139,4.462,-5.209,-2.225,-1.423,-7.038,-0.095,0.796,-0.480,1.343,1.099,-0.244,80.000,4978.000,1.000
4.586,2.098,2.987,4.429,-5.599,-0.051,-1.825,-7.923,-0.096,0.796,-0.481,1.312,1.160,-0.214,80.000,4979.000,1.000
3.946,2.261,2.705,5.314,-5.164,2.176,-1.571,-7.688,-0.097,0.798,-0.483,1.343,1.282,-0.183,80.000,4980.000,1.000
2.954,2.443,1.679,5.156,-4.418,3.996,-1.093,-7.244,-0.096,0.799,-0.483,1.343,1.190,-0.153,80.000,4981.000,1.000
0.763,2.023,-0.472,2.683,-3.798,5.276,-0.525,-6.998,-0.095,0.799,-0.482,1.343,1.129,0.061,80.000,4982.000,1.000
-2.727,0.744,-3.098,-0.645,-3.128,6.314,0.479,-6.366,-0.094,0.797,-0.483,1.373,1.129,-0.061,80.000,4983.000,1.000
-6.299,-0.850,-5.026,-2.486,-2.010,7.399,2.214,-4.808,-0.095,0.797,-0.484,1.312,1.007,-0.092,80.000,4984.000,1.000
-8.463,-1.947,-5.564,-2.120,-0.419,8.403,4.477,-2.601,-0.095,0.799,-0.485,1.282,0.946,-0.092,80.000,4985.000,1.000
-8.826,-2.302,-4.879,-0.440,1.200,8.754,6.587,-0.477,-0.095,0.796,-0.486,1.251,0.977,-0.061,80.000,4986.000,1.000
-8.028,-2.272,-3.593,1.551,2.320,7.813,7.805,1.090,-0.098,0.798,-0.486,1.251,1.007,0.000,80.000,4987.000,1.000
-6.631,-2.112,-2.178,3.594,2.777,5.478,7.859,2.218,-0.097,0.798,-0.486,1.282,1.038,-0.061,80.000,4988.000,1.000
-4.883,-1.759,-0.948,5.494,2.662,2.344,6.950,3.083,-0.095,0.799,-0.480,1.221,0.977,-0.031,80.000,4989.000,1.000
-3.261,-1.258,-0.302,6.213,1.895,-0.774,5.314,3.094,-0.093,0.798,-0.482,1.129,0.916,0.000,80.000,4990.000,1.000
-2.180,-0.694,-0.383,4.516,0.446,-3.239,3.260,1.393,-0.092,0.796,-0.485,0.946,0.946,-0.031,80.000,4991.000,1.000
-1.262,0.217,-0.607,0.555,-1.108,-4.604,1.481,-1.759,-0.092,0.795,-0.483,0.916,0.946,-0.031,80.000,4992.000,1.000
0.332,1.947,-0.064,-3.749,-1.795,-4.625,0.813,-4.848,-0.091,0.796,-0.485,0.885,0.885,0.000,80.000,4993.000,1.000
2.769,4.487,1.600,-5.927,-1.045,-3.428,1.650,-6.184,-0.091,0.797,-0.483,0.916,0.916,-0.061,80.000,4994.000,1.000
5.236,7.062,3.914,-4.567,0.934,-1.614,3.681,-4.897,-0.093,0.796,-0.486,1.007,1.007,-0.031,80.000,4995.000,1.000
6.857,8.674,6.106,-0.324,3.401,-0.100,6.029,-1.526,-0.092,0.795,-0.485,0.824,1.007,-0.031,80.000,4996.000,1.000
7.530,8.969,7.726,4.442,5.532,0.395,7.679,2.206,-0.092,0.791,-0.485,0.732,1.068,-0.061,80.000,4997.000,1.000
7.670,8.365,8.722,7.393,6.778,-0.116,8.076,4.622,-0.093,0.790,-0.485,1.007,1.129,-0.092,80.000,4998.000,1.000
7.629,7.448,9.143,7.752,7.040,-0.953,7.440,5.144,-0.095,0.791,-0.481,1.007,1.038,-0.092,80.000,4999.000,1.000
7.682,6.647,9.082,6.526,6.749,-1.317,6.577,4.290,-0.096,0.792,-0.484,1.099,1.007,-0.214,80.000,5000.000,1.000
8.199,6.420,8.918,5.726,6.774,-0.699,6.412,3.084,-0.096,0.792,-0.487,1.129,1.007,-0.214,80.000,5001.000,1.000
9.250,7.048,9.153,7.220,7.867,1.012,7.452,2.523,-0.094,0.792,-0.484,1.190,0.977,-0.275,80.000,5002.000,1.000
9.985,7.941,9.632,11.135,9.853,3.335,9.341,2.997,-0.096,0.792,-0.483,1.251,0.946,-0.366,80.000,5003.000,1.000
9.031,7.744,9.308,15.172,11.568,5.246,11.047,3.975,-0.094,0.792,-0.485,1.312,0.885,-0.366,80.000,5004.000,1.000
5.780,5.526,7.188,16.265,11.840,5.825,11.730,4.553,-0.095,0.793,-0.485,1.343,0.916,-0.366,80.000,5005.000,1.000
0.854,1.528,3.266,12.925,10.259,4.811,11.214,4.195,-0.097,0.794,-0.484,1.343,0.916,-0.397,80.000,5006.000,1.000
-4.468,-3.100,-1.443,6.162,7.107,2.551,9.639,2.812,-0.094,0.794,-0.486,1.343,0.946,-0.488,80.000,5007.000,1.000
-8.715,-6.918,-5.435,-1.271,3.154,-0.308,7.202,0.557,-0.095,0.796,-0.482,1.343,1.038,-0.427,80.000,5008.000,1.000
-10.575,-8.893,-7.430,-6.385,-0.472,-3.097,4.423,-2.048,-0.094,0.797,-0.486,1.251,0.885,-0.397,80.000,5009.000,1.000
-9.662,-8.900,-7.028,-7.301,-2.765,-5.334,2.242,-3.905,-0.093,0.796,-0.484,1.251,0.885,-0.366,80.000,5010.000,1.000
-7.001,-7.653,-4.930,-4.213,-3.410,-6.859,1.453,-3.771,-0.094,0.797,-0.484,1.068,0.885,-0.458,80.000,5011.000,1.000
-4.336,-6.165,-2.500,0.532,-2.946,-7.945,2.000,-1.396,-0.093,0.795,-0.480,1.068,0.946,-0.488,80.000,5012.000,1.000
-2.819,-5.187,-0.955,3.912,-2.357,-9.213,2.954,1.814,-0.094,0.797,-0.483,0.916,0.824,-0.275,80.000,5013.000,1.000
-2.496,-4.963,-0.745,4.432,-2.294,-11.121,3.307,3.951,-0.094,0.797,-0.483,0.854,0.977,-0.336,80.000,5014.000,1.000
-2.871,-5.394,-1.473,3.235,-2.556,-13.421,2.781,4.414,-0.094,0.797,-0.483,0.854,0.977,-0.336,80.000,5015.000,1.000
-3.429,-6.201,-2.268,2.892,-2.359,-15.233,1.862,4.033,-0.094,0.799,-0.484,0.824,0.977,-0.305,80.000,5016.000,1.000
-3.708,-6.943,-2.412,4.633,-1.224,-15.820,1.081,3.657,-0.092,0.798,-0.482,0.702,0.916,-0.244,80.000,5017.000,1.000
-3.551,-7.297,-1.916,6.919,0.386,-15.193,0.413,3.248,-0.094,0.797,-0.485,0.610,0.946,-0.275,80.000,5018.000,1.000
-3.303,-7.342,-1.422,7.376,1.473,-13.776,-0.403,2.358,-0.096,0.796,-0.486,0.580,1.007,-0.336,80.000,5019.000,1.000
-3.149,-7.225,-1.402,5.699,1.531,-11.782,-1.207,1.036,-0.097,0.797,-0.484,0.549,1.007,-0.275,80.000,5020.000,1.000
-2.468,-6.798,-1.682,3.690,0.933,-9.322,-1.469,-0.099,-0.093,0.796,-0.486,0.488,1.007,-0.214,80.000,5021.000,1.000
-0.364,-5.969,-1.870,2.963,0.283,-6.933,-0.911,-0.488,-0.095,0.796,-0.485,0.580,1.007,-0.153,80.000,5022.000,1.000
3.430,-4.983,-1.773,3.791,-0.199,-5.416,0.194,-0.058,-0.098,0.795,-0.484,0.488,0.946,-0.183,80.000,5023.000,1.000
8.592,-3.934,-1.136,5.788,-0.526,-5.021,1.288,0.843,-0.097,0.793,-0.483,0.458,0.824,-0.183,80.000,5024.000,1.000
14.919,-2.295,0.689,8.806,-0.454,-5.117,1.971,1.796,-0.096,0.794,-0.485,0.580,0.824,-0.214,80.000,5025.000,1.000
22.416,0.669,4.367,12.879,0.545,-4.716,2.313,2.739,-0.094,0.792,-0.485,0.580,0.824,-0.275,80.000,5026.000,1.000
30.704,5.138,9.872,17.647,2.784,-3.218,2.794,4.063,-0.095,0.794,-0.484,0.519,0.824,-0.244,80.000,5027.000,1.000
38.821,10.562,16.357,22.311,5.910,-0.851,3.692,5.975,-0.095,0.791,-0.483,0.610,0.793,-0.275,80.000,5028.000,1.000
45.669,16.033,22.563,25.870,8.903,1.410,4.482,7.752,-0.095,0.793,-0.485,0.580,0.763,-0.305,80.000,5029.000,1.000
50.534,20.636,27.360,27.546,10.630,2.589,4.231,8.169,-0.094,0.793,-0.482,0.671,0.763,-0.336,80.000,5030.000,1.000
53.131,23.528,30.078,27.409,10.515,2.444,2.593,6.750,-0.096,0.793,-0.484,0.763,0.763,-0.366,80.000,5031.000,1.000
53.323,24.079,30.533,26.301,8.696,1.397,0.138,4.219,-0.095,0.792,-0.485,0.793,0.763,-0.366,80.000,5032.000,1.000
51.285,22.285,29.050,25.051,5.849,0.065,-2.117,1.843,-0.095,0.792,-0.484,0.793,0.732,-0.336,80.000,5033.000,1.000
47.882,19.007,26.482,23.939,2.957,-0.952,-3.269,0.556,-0.097,0.792,-0.482,0.854,0.763,-0.427,80.000,5034.000,1.000
44.186,15.489,23.790,22.586,0.862,-1.238,-2.941,0.480,-0.096,0.795,-0.480,0.824,0.702,-0.366,80.000,5035.000,1.000
40.591,12.574,21.457,20.510,-0.197,-0.930,-1.454,1.116,-0.097,0.795,-0.481,0.885,0.732,-0.366,80.000,5036.000,1.000
36.865,10.384,19.388,17.876,-0.555,-0.716,0.416,1.905,-0.097,0.794,-0.481,0.854,0.732,-0.366,80.000,5037.000,1.000
32.902,8.584,17.238,15.240,-0.807,-1.162,1.938,2.195,-0.097,0.795,-0.480,0.854,0.671,-0.366,80.000,5038.000,1.000
28.903,6.740,14.740,12.832,-1.544,-2.131,2.784,1.122,-0.096,0.795,-0.479,0.977,0.610,-0.427,80.000,5039.000,1.000
24.914,4.549,11.907,10.732,-3.007,-2.937,3.107,-1.543,-0.096,0.795,-0.482,0.946,0.580,-0.397,80.000,5040.000,1.000
20.792,2.109,9.074,9.220,-4.761,-2.900,3.435,-4.671,-0.095,0.795,-0.482,0.916,0.732,-0.275,80.000,5041.000,1.000
16.587,-0.047,6.593,8.186,-5.975,-1.779,4.287,-6.630,-0.097,0.794,-0.484,0.916,0.702,-0.214,80.000,5042.000,1.000
12.488,-1.429,4.428,6.716,-6.219,0.080,5.583,-6.715,-0.096,0.795,-0.485,0.885,0.641,-0.366,80.000,5043.000,1.000
8.689,-1.930,2.399,4.153,-5.732,1.979,6.708,-5.305,-0.096,0.797,-0.482,0.977,0.488,-0.214,80.000,5044.000,1.000
5.687,-1.572,0.771,1.099,-4.874,3.404,7.357,-3.014,-0.097,0.795,-0.483,0.977,0.366,-0.183,80.000,5045.000,1.000
4.331,-0.323,0.141,-1.250,-3.771,4.288,7.846,-0.506,-0.099,0.794,-0.483,0.977,0.427,-0.092,80.000,5046.000,1.000
5.019,1.575,0.658,-2.215,-2.615,4.734,8.354,1.179,-0.100,0.794,-0.480,0.946,0.336,-0.122,80.000,5047.000,1.000
6.892,3.331,1.593,-1.843,-1.967,4.643,8.373,1.076,-0.098,0.795,-0.484,0.946,0.336,-0.122,80.000,5048.000,1.000
8.367,4.044,1.874,-0.638,-2.365,3.834,7.278,-0.792,-0.096,0.795,-0.482,0.977,0.275,-0.092,80.000,5049.000,1.000
8.704,3.564,1.193,0.879,-3.573,2.506,5.283,-3.229,-0.098,0.795,-0.482,1.038,0.275,-0.092,80.000,5050.000,1.000
8.588,2.671,0.387,2.613,-4.549,1.287,3.450,-4.797,-0.096,0.793,-0.482,1.068,0.336,-0.092,80.000,5051.000,1.000
9.072,2.344,0.597,4.630,-4.383,0.742,2.707,-5.038,-0.098,0.794,-0.485,1.038,0.336,0.031,80.000,5052.000,1.000
10.648,3.094,2.366,6.544,-3.059,0.959,3.065,-4.658,-0.098,0.794,-0.484,1.007,0.214,0.153,80.000,5053.000,1.000
13.519,5.077,5.602,7.595,-1.127,1.669,3.842,-4.570,-0.094,0.794,-0.480,1.007,0.214,0.214,80.000,5054.000,1.000
18.012,8.495,10.049,7.564,1.195,2.793,4.589,-4.883,-0.097,0.794,-0.481,1.068,0.305,0.366,80.000,5055.000,1.000
24.206,13.484,15.523,7.518,4.388,4.788,5.660,-4.700,-0.097,0.794,-0.483,1.068,0.305,0.305,80.000,5056.000,1.000
31.370,19.715,21.766,9.346,9.137,8.419,7.860,-2.700,-0.098,0.794,-0.484,1.099,0.244,0.366,80.000,5057.000,1.000
38.259,26.409,28.290,14.188,15.545,14.168,11.650,1.749,-0.097,0.793,-0.479,1.129,0.305,0.427,80.000,5058.000,1.000
43.803,32.512,34.162,20.755,22.487,21.448,16.445,7.281,-0.099,0.796,-0.480,1.221,0.305,0.458,80.000,5059.000,1.000
47.126,36.700,37.964,25.631,27.719,28.309,20.588,10.716,-0.099,0.796,-0.481,1.129,0.397,0.397,80.000,5060.000,1.000
47.555,37.951,38.606,26.354,29.361,32.511,22.490,9.703,-0.099,0.796,-0.481,1.099,0.549,0.427,80.000,5061.000,1.000
45.217,36.400,36.385,23.730,27.424,33.068,21.880,5.027,-0.100,0.795,-0.483,1.160,0.397,0.519,80.000,5062.000,1.000
41.278,33.257,32.885,20.747,23.559,30.517,19.645,-0.213,-0.095,0.797,-0.483,1.129,0.427,0.427,80.000,5063.000,1.000
37.206,29.822,29.774,20.010,19.553,26.046,16.889,-3.096,-0.094,0.797,-0.486,1.129,0.549,0.427,80.000,5064.000,1.000
33.782,26.693,27.703,21.875,16.263,20.753,14.455,-2.480,-0.096,0.796,-0.486,1.129,0.458,0.458,80.000,5065.000,1.000
30.946,23.787,26.273,24.246,13.636,15.504,12.848,0.840,-0.097,0.797,-0.484,1.129,0.580,0.397,80.000,5066.000,1.000
28.347,20.886,24.807,24.345,11.233,10.878,12.037,4.968,-0.098,0.796,-0.482,1.099,0.610,0.336,80.000,5067.000,1.000
25.603,17.893,22.828,20.920,8.537,6.914,11.290,8.117,-0.096,0.796,-0.482,1.038,0.580,0.336,80.000,5068.000,1.000
22.336,14.778,20.161,15.354,5.227,3.250,9.726,9.678,-0.097,0.797,-0.482,1.129,0.641,0.275,80.000,5069.000,1.000
18.608,11.734,17.159,10.942,1.607,-0.087,7.331,10.358,-0.097,0.796,-0.484,1.099,0.702,0.336,80.000,5070.000,1.000
15.070,9.287,14.541,9.992,-1.575,-2.431,4.974,10.916,-0.095,0.796,-0.482,1.038,0.793,0.183,80.000,5071.000,1.000
12.172,7.863,12.620,11.487,-3.980,-3.246,3.209,10.937,-0.095,0.797,-0.484,1.007,0.854,0.214,80.000,5072.000,1.000
9.487,7.233,10.891,12.233,-6.023,-2.804,1.553,9.299,-0.094,0.798,-0.479,0.977,0.763,0.061,80.000,5073.000,1.000
6.215,6.667,8.608,9.896,-8.272,-1.875,-0.788,5.544,-0.094,0.797,-0.481,0.946,0.916,0.000,80.000,5074.000,1.000
2.316,5.808,5.810,4.894,-10.608,-1.001,-3.782,0.585,-0.096,0.799,-0.482,0.916,0.854,0.000,80.000,5075.000,1.000
-1.299,5.047,3.569,-0.147,-12.100,-0.285,-6.403,-3.657,-0.098,0.796,-0.486,0.885,0.824,-0.122,80.000,5076.000,1.000
-3.814,4.918,3.066,-2.583,-11.757,0.350,-7.459,-5.308,-0.096,0.799,-0.485,0.793,0.916,-0.092,80.000,5077.000,1.000
-5.264,5.541,4.599,-1.547,-9.359,0.946,-6.490,-3.663,-0.096,0.797,-0.486,0.854,0.916,-0.122,80.000,5078.000,1.000
-6.108,6.747,7.470,1.864,-5.589,1.518,-3.956,0.224,-0.095,0.794,-0.485,0.702,0.946,-0.183,80.000,5079.000,1.000
-6.634,8.284,10.517,5.626,-1.498,2.113,-0.683,4.236,-0.097,0.796,-0.487,0.702,0.977,-0.214,80.000,5080.000,1.000
-7.112,9.697,12.665,7.962,2.063,2.792,2.719,6.776,-0.098,0.796,-0.486,0.610,0.977,-0.244,80.000,5081.000,1.000
-8.066,10.317,13.227,7.997,4.601,3.592,5.904,7.568,-0.096,0.796,-0.484,0.610,0.977,-0.305,80.000,5082.000,1.000
-9.895,9.765,12.131,6.027,5.937,4.549,8.538,7.225,-0.097,0.797,-0.485,0.519,0.916,-0.214,80.000,5083.000,1.000
-12.287,8.348,9.982,3.369,6.168,5.652,10.211,6.454,-0.097,0.798,-0.483,0.549,1.038,-0.305,80.000,5084.000,1.000
-14.489,6.624,7.589,1.443,5.436,6.592,10.440,5.336,-0.095,0.798,-0.484,0.427,0.977,-0.214,80.000,5085.000,1.000
-16.176,4.746,5.298,0.688,3.716,6.695,8.862,3.354,-0.098,0.796,-0.484,0.427,1.038,-0.336,80.000,5086.000,1.000
-17.628,2.650,3.056,0.452,1.109,5.447,5.722,0.425,-0.099,0.798,-0.481,0.336,0.946,-0.214,80.000,5087.000,1.000
-19.090,0.692,0.922,-0.180,-1.862,3.076,1.946,-2.603,-0.101,0.797,-0.482,0.305,1.068,-0.275,80.000,5088.000,1.000
-20.513,-0.457,-0.859,-1.353,-4.523,0.407,-1.455,-4.537,-0.099,0.796,-0.479,0.275,0.977,-0.244,80.000,5089.000,1.000
-21.994,-0.608,-2.276,-2.280,-6.589,-1.778,-3.946,-4.638,-0.099,0.796,-0.478,0.275,0.977,-0.275,80.000,5090.000,1.000
-23.966,-0.486,-3.829,-2.431,-8.411,-3.242,-5.637,-3.250,-0.100,0.797,-0.479,0.275,0.946,-0.275,80.000,5091.000,1.000
-26.706,-1.113,-6.134,-2.195,-10.517,-4.155,-6.947,-1.584,-0.100,0.800,-0.479,0.336,1.007,-0.153,80.000,5092.000,1.000
-30.036,-2.913,-9.336,-2.199,-12.887,-4.635,-7.974,-0.505,-0.100,0.799,-0.483,0.275,0.977,-0.061,80.000,5093.000,1.000
-33.714,-5.684,-13.125,-3.027,-14.971,-4.791,-8.430,0.115,-0.100,0.797,-0.483,0.336,1.007,-0.214,80.000,5094.000,1.000
-37.462,-8.956,-16.917,-5.278,-16.191,-4.980,-8.139,0.776,-0.098,0.798,-0.484,0.244,0.946,-0.122,80.000,5095.000,1.000
-40.454,-11.960,-19.781,-8.847,-16.075,-5.464,-7.134,1.713,-0.098,0.798,-0.482,0.214,0.885,-0.061,80.000,5096.000,1.000
-41.746,-13.879,-20.845,-12.492,-14.308,-5.917,-5.322,2.959,-0.098,0.797,-0.481,0.275,0.824,-0.092,80.000,5097.000,1.000
-41.543,-14.641,-20.120,-14.726,-11.121,-5.663,-2.537,4.443,-0.098,0.797,-0.480,0.275,0.824,0.000,80.000,5098.000,1.000
-41.197,-14.994,-18.529,-14.981,-7.407,-4.302,1.020,5.823,-0.097,0.796,-0.480,0.305,0.824,0.031,80.000,5099.000,1.000
-41.688,-15.547,-17.011,-13.890,-4.116,-1.956,4.699,6.560,-0.096,0.799,-0.479,0.244,0.854,0.092,80.000,5100.000,1.000
-42.705,-16.090,-15.873,-12.616,-1.633,0.928,7.789,6.408,-0.096,0.798,-0.476,0.183,0.824,0.122,80.000,5101.000,1.000
-43.417,-15.944,-14.986,-12.002,0.195,3.822,9.902,5.784,-0.096,0.800,-0.478,0.214,0.732,0.153,80.000,5102.000,1.000
-43.575,-14.790,-14.225,-12.280,1.624,6.203,11.059,5.535,-0.097,0.798,-0.474,0.244,0.824,0.122,80.000,5103.000,1.000
-43.332,-12.840,-13.425,-12.980,2.934,7.680,11.629,6.417,-0.098,0.798,-0.478,0.336,0.732,0.122,80.000,5104.000,1.000
-42.466,-10.291,-12.135,-12.931,4.648,8.277,12.269,8.818,-0.097,0.797,-0.479,0.366,0.793,0.092,80.000,5105.000,1.000
-40.774,-7.231,-10.066,-11.254,7.168,8.403,13.584,12.440,-0.098,0.799,-0.479,0.336,0.824,0.000,80.000,5106.000,1.000
-38.889,-4.135,-7.751,-8.426,10.149,8.480,15.663,16.105,-0.098,0.800,-0.479,0.427,0.824,0.031,80.000,5107.000,1.000
-37.726,-1.797,-6.187,-5.772,12.737,8.802,18.099,18.338,-0.097,0.799,-0.480,0.397,0.793,0.031,80.000,5108.000,1.000
-37.412,-0.698,-5.899,-4.202,14.442,9.675,20.487,18.406,-0.098,0.798,-0.478,0.427,0.916,0.092,80.000,5109.000,1.000
-37.318,-0.641,-6.510,-3.582,15.502,11.457,22.734,16.833,-0.097,0.798,-0.479,0.458,0.916,0.122,80.000,5110.000,1.000
-36.788,-0.924,-7.047,-2.917,16.504,14.331,24.878,14.973,-0.097,0.796,-0.479,0.427,0.916,0.061,80.000,5111.000,1.000
-35.527,-0.853,-6.635,-1.232,17.757,17.972,26.757,14.003,-0.096,0.797,-0.480,0.519,0.977,0.153,80.000,5112.000,1.000
-33.737,-0.340,-5.273,1.098,18.787,21.382,27.718,13.880,-0.097,0.796,-0.482,0.610,0.916,0.061,80.000,5113.000,1.000
-32.248,-0.120,-4.146,1.637,18.268,23.119,26.587,12.969,-0.099,0.796,-0.479,0.610,0.946,0.000,80.000,5114.000,1.000
-32.059,-1.161,-4.704,-2.218,14.958,22.144,22.531,9.496,-0.095,0.796,-0.479,0.793,1.007,0.092,80.000,5115.000,1.000
-33.221,-3.659,-7.103,-10.025,9.082,18.708,16.195,3.711,-0.095,0.797,-0.478,0.732,1.068,0.000,80.000,5116.000,1.000
-34.462,-6.708,-9.913,-18.260,2.478,14.229,9.568,-2.178,-0.096,0.795,-0.478,0.793,1.160,0.000,80.000,5117.000,1.000
-34.341,-9.003,-11.491,-23.626,-2.697,10.289,4.747,-5.939,-0.097,0.797,-0.479,0.824,1.190,0.031,80.000,5118.000,1.000
-32.616,-9.775,-11.249,-25.312,-5.204,7.845,2.974,-6.513,-0.098,0.797,-0.480,0.916,1.190,-0.061,80.000,5119.000,1.000
-30.150,-9.116,-9.632,-24.340,-5.013,7.049,4.321,-4.071,-0.097,0.798,-0.480,0.977,1.312,-0.031,80.000,5120.000,1.000
-27.730,-7.596,-7.394,-21.852,-2.954,7.401,7.796,0.258,-0.096,0.798,-0.476,1.007,1.251,-0.092,80.000,5121.000,1.000
-25.559,-5.882,-5.177,-18.344,-0.182,8.081,11.897,4.965,-0.097,0.799,-0.478,1.007,1.251,-0.031,80.000,5122.000,1.000
-23.802,-4.657,-3.544,-14.456,2.239,8.340,15.240,8.821,-0.095,0.799,-0.478,1.068,1.343,-0.061,80.000,5123.000,1.000
-22.751,-4.404,-2.870,-11.697,3.580,7.764,16.829,11.047,-0.097,0.797,-0.481,1.068,1.312,-0.122,80.000,5124.000,1.000
-22.048,-4.876,-2.833,-11.092,3.780,6.538,16.301,11.420,-0.097,0.799,-0.479,1.099,1.312,-0.122,80.000,5125.000,1.000
-20.557,-5.170,-2.398,-11.529,3.652,5.463,14.289,10.559,-0.096,0.799,-0.479,1.068,1.404,-0.214,80.000,5126.000,1.000
-17.723,-4.704,-0.805,-10.504,4.348,5.362,12.237,9.782,-0.095,0.800,-0.476,1.221,1.465,-0.092,80.000,5127.000,1.000
-14.492,-3.787,1.600,-6.561,6.384,6.391,11.463,10.224,-0.096,0.798,-0.480,1.160,1.526,0.000,80.000,5128.000,1.000
-12.350,-3.108,3.610,-1.262,9.168,8.035,12.246,11.772,-0.099,0.797,-0.480,1.160,1.495,-0.031,80.000,5129.000,1.000
-11.910,-2.952,4.163,1.845,11.650,9.809,13.953,13.204,-0.098,0.799,-0.478,1.129,1.434,-0.061,80.000,5130.000,1.000
